subject,Af3,Af4,Af7,Af8,Afz,C1,C2,C3,C4,C5,C6,Cp1,Cp2,Cp3,Cp4,Cp5,Cp6,Cpz,Cz,F1,F2,F3,F4,F5,F6,F7,F8,Fc1,Fc2,Fc3,Fc4,Fc5,Fc6,Fcz,Fp1,Fp2,Fpz,Ft7,Ft8,Fz,Iz,O1,O2,Oz,P1,P2,P3,P4,P5,P6,P7,P8,Po3,Po4,Po7,Po8,Poz,Pz,T10,T7,T8,T9,Tp7,Tp8
001,0.44437984964524807,-0.3970052551309808,0.9648607860529399,-0.19332714153007563,0.07030980016996918,1.1836920745992554,-0.415263474087158,0.36783424410341126,-0.986439816103827,-0.20552103891149137,-3.378452282450606,1.473513390360301,1.0932242284514924,0.435365352824056,0.7684659861274112,0.5204522828224067,-0.5258754995194928,1.5144117989996337,2.538857176665029,-0.208916768839095,-0.23849378789519443,0.3024565626874724,-0.5064295568392787,0.2694866120896351,-1.0129413143796597,0.18632180275875643,-1.592204412843944,0.6243137743915197,0.2954391034360768,0.6354172406536028,-1.8643505906989954,-0.37750280783864565,-2.8292820299363335,1.2837790802079347,-0.39277724403262226,-1.2066978709831555,0.06343746898922847,0.10986935986195906,-2.5184359589476877,-0.3766479699545206,-1.0686391422718695,-1.471827419521797,-1.4286147696698253,-1.8240683573087746,0.7809732367546742,1.472802643865223,-0.9229793676657811,0.9035344954828688,-1.0739820859300986,0.5313125557621591,-0.7152246043224628,-0.8602248010658171,-0.3250882797443233,0.8977002818269735,-1.4166778211892734,-0.8632565063278165,-0.0150392104552321,1.0332874387689244,1.5904784483353174,-1.327687786631259,-3.889262243164064,-1.3422496564616984,-2.0855551393626857,0.019989287431576075
002,-1.9047239629593182,-0.4372351946944657,-0.8186553507134119,-0.959351728214278,0.1421769803753573,-0.7415435736569266,1.0635530174110726,-0.11936322468248833,0.7050212067161015,-0.16531079778250268,1.2890360439774187,-0.04497132865219122,0.24903004675336382,0.6876213675826424,-0.8785288350491532,-1.232030429564904,0.4074568360834206,-0.04231867423094349,-0.5287064725123286,-0.540707762506415,-0.7480820338729728,-1.3199854450022845,-0.08601416167969173,-2.0358573764816867,-0.836996102458489,-1.8473509638410466,-0.32955076119947146,-0.44041168812640763,-0.41606274360979284,-0.09180187323879546,0.8672565718440745,-2.402854542887587,-1.0953326150251026,0.1689418035704034,0.3630397838122691,-0.6396424215843359,-1.5727113966679167,-2.8841729970963272,0.39072330807443534,-0.6926660812223482,0.5035677407528489,1.9681020000462863,0.15056436551763874,0.6341931803729792,-0.01480972142202086,0.3570077037205157,0.26866926723023243,0.590518633301377,1.4896359380727098,-0.08851823395289671,0.7553961318513494,-0.008443066239178842,0.9162837084739264,0.41927319586204187,1.1544601034244772,0.9091531531255532,0.10093621438637551,-0.2506872563165856,-0.09957062646688752,0.9377747271479512,0.4562582875893355,-1.7266996444312457,-0.3119737467132289,0.26248955966222837
003,-0.221050271447088,-0.8458513631709836,-1.5728716867078383,-0.9543812205200185,-0.6011727093437863,-0.8201520173656753,-1.439179080864641,-0.8867388039923714,-2.892439438290006,-0.9818582663533266,-1.6509180854484016,-1.4421527860541106,-1.2305921252751149,-1.592791896238504,-2.4602841589132414,-2.575693407191929,-1.9079298378650742,-1.3541626243647358,-1.0178135041806695,-0.5083343163703187,-0.868944238565673,-0.9075032415381512,-0.6225032583134855,-0.7589163084564708,-1.0935609373628274,-1.1254513858350084,-0.559861004715528,-0.6973498071488939,-1.1905871663980805,-1.5384124213692403,-0.698054879436584,-0.9941458549615623,-0.5856392831755585,-1.304440533441388,-0.7116834594453545,-0.5875795464584475,-1.0969292192872415,1.7373088071301046,-2.4854384223053216,-1.1182831917951752,-2.630101430360104,-3.636066942407002,-1.5447396782438545,-2.565205618803602,-2.4628376267668037,-2.2361055408526114,-2.3881577980637196,-2.3368034470528904,-2.9687557531550013,-1.6296948300461156,-3.393485568027411,-2.8164242525627747,-2.98088918434232,-2.1035757889953137,-3.679547111293763,-2.3520749865508974,-2.0914357068249205,-1.598506367262399,-2.8057224655679693,-1.9989530596933336,-3.2597627109876663,-0.9874841342938485,-1.7140779126558336,-1.3000559107167267
004,-2.4824807535940816,1.376171230632464,0.4086246165943636,1.5757154105331124,1.011544948008088,1.8010831350997314,1.0572400869839926,1.7635589994372913,1.2058286003746566,1.353065020199287,0.23267922954560905,0.5684665168832609,0.9390249482771933,1.0651881659515388,1.8738488989994542,1.4444734970840836,-0.4009438093577586,0.2905718778891407,1.1668819259432177,0.31590617743073035,0.7063288736106678,1.3511903050048297,-0.21574468780495037,-1.511142811791298,0.7769200108805664,0.800996799025206,-0.15564704732014673,1.6111895087325911,0.3969561681260585,0.7499606937111964,0.666380095192626,0.39638928848993404,0.14318672374604935,0.5672157439754864,-0.682345375003772,1.1425959052028856,1.3159809594033918,0.2624475170763453,-0.10157815714137058,0.5643094692454713,-0.5009892561287417,0.8318876296605475,1.3026349018592371,0.011400216219039472,0.983421189629149,0.52068240154828,1.245212224793221,1.9171774821714267,1.375024493740597,0.9050115601054017,1.0877597628801208,1.7070850853360744,1.8543953895505194,0.7449146977471774,0.3488290328681594,0.8446693017707699,0.892615919276958,0.13552421431435924,-0.3858661329370488,0.037931251760601636,-0.8133950574546557,0.55012719547394,1.6196145649568157,0.2989181224714054
005,-1.108770130794517,-0.22973149814026006,-0.021226007140184244,1.1015776686057597,-1.5034993465556428,-0.09527197883546751,-0.4823786614684964,-0.49703977891356826,-1.4431573254199888,-0.6782230207836171,-0.7823536471271638,-0.9963472152452715,-1.0728852451395277,-1.5878523557257327,-1.2502583597206927,1.1012669330933853,-1.0333400569991003,0.19220204313413808,0.552870115811787,-0.4319288511360444,0.9646639835038346,-1.4191680163157478,1.1572874345457942,0.023360250330347998,-0.5243908590017049,2.0739732564255537,-0.22061337403373948,-0.9716776647669434,1.3973418945125788,-2.3826614775848665,0.9446460900667376,1.2155899309409122,0.4053207613627715,-1.2287324728210303,-2.189294926433325,0.4144118334561496,-0.9624082998437256,-1.1707537032166164,-1.2356756791054078,0.48123837838410927,1.401005730769442,-0.36508445618519897,-1.6313598587832305,-0.18966490591069268,1.314349552566308,0.3049068780954215,-0.3960723540433685,-0.11731100504516839,-1.7382726002682483,-0.8098167543759862,-1.2354414760180137,-0.5038041165803301,0.38631321764743326,-1.2853848047290866,-0.23076992138808883,2.662988339807623,0.7054847134430742,0.33294159144637425,-1.6287273081900828,2.1358652525165187,-0.35245462972698033,-1.6403219047956314,-0.9673787422210184,-1.3347144718797788
006,1.7087083265505312,2.4107559930867337,1.5513285198532127,1.5602847746363806,1.6084897893125976,1.0247945396395566,0.4013256706771971,1.6794180364466351,-0.5472268921728831,0.7458214882186013,1.6514637833806218,1.4098940855084396,0.7761289646197493,1.0374951391306615,-0.32593781169914937,-0.08917782429720744,-0.45375870101516996,0.25087066628036625,0.47162461833319796,0.5997786776461773,1.620833371794874,0.19602395523728156,1.796248267434159,0.3410827287731568,2.514665798329745,-0.3316589203177397,1.779951528492624,0.5156160733032837,0.5937271827132025,0.6697484062057275,0.887205470071166,-0.025334801805625695,0.8147544169999992,1.6577521357593878,1.3487795211655982,1.9803219419589337,1.5314932215965436,-0.9143708076358106,1.1766673723902772,0.3404271135512875,-0.3682984738018146,-0.3361454297394079,0.8545254899818282,1.3506414188704468,-0.31939002043755105,1.486234390391064,-0.19701334795570408,0.632709405989141,-0.5141612465295832,0.919830835865574,-0.3047831666777119,1.1526407307354387,-0.7719077857753545,1.3273964915004641,-1.1120952835912523,1.3687097292752681,0.47451370933655146,0.22580379533347555,1.5803091294246143,-0.5734958800359672,1.0312261692708429,-0.003906431206388672,0.8824991824985023,1.0560818750682048
007,0.7961468464403278,0.9446706560610675,-0.01138663197016554,0.9495073027712919,0.5815759485191447,-0.14765249696769644,-1.5668124747956704,-1.433718537644087,-1.4982398766509735,-5.038166984514853,-2.5405597102604993,-0.5803705840219706,-0.9160903831013809,-1.490072213468303,-0.6788684716218474,-1.7538836868575471,-1.3164268800031425,0.05456196187107004,0.05920334235786806,0.00949519298448298,-0.023561839633275405,-0.5400071893514959,-0.536515067024383,-0.46432900162375057,0.24532090982148005,-0.5525469640615814,1.4259721043921334,-0.22642488230950747,-0.5276882108523725,0.47059888367530556,-0.5545592164352273,-0.09335463880830419,-1.4291951406656567,-0.42059265029468185,1.6383628043063925,1.2183294729963836,0.7380852891765619,-1.640097994404594,-2.759334252882547,0.13188848288201976,0.4832111705227725,-0.4965569494004076,0.734267752256553,0.4878694590272292,-0.633215200214311,-1.5966412740291398,-1.0346274624226843,-1.3764420096740868,0.2039455875575884,-0.6192218017902551,-0.18761148045831888,0.6081614225040394,-1.6927302200258794,-0.28706413842757433,-0.3779561023254147,-0.03190796139931662,-1.0023444905206453,-1.3001334532890092,-1.5904960103588794,-4.258492022133275,-0.3237968114605554,-4.210217087261339,-1.10264026067653,0.4255706491729212
008,-1.4716409895355647,-0.9454089392333186,-1.3124075274015732,-2.0675517506137857,-1.3374691962379814,-0.49768042669780665,0.30164005224228674,0.5087953762057916,-0.5743684072643994,-0.6062912117670797,-1.0738816304705456,-0.27855720452375576,-0.15169395979153333,-0.6185620960756657,-1.3322395768016793,-0.25142006952314555,-0.4505633999917391,-0.7008619472240787,0.2597707397113037,-0.28472549845043216,-1.8305770392422596,-0.2940668824944833,-1.863501623369026,-0.49549042617583516,-1.3408761903479927,0.22844408541220923,-2.2102455388771793,-1.1080760642605152,-0.39225365540884194,-0.5412856185919721,-0.5090094983220423,-2.9534696610154354,-2.3767561857302844,-1.1803502486916322,-2.1668804031552145,-1.7421279392258024,-1.3789522549178916,0.5379306089728698,-0.6630464040951248,-1.2132042509296286,0.7441636359027499,-0.2976970389678387,-1.073400447603582,0.09822217585796356,-1.6437756372191135,0.14696593795899793,-0.08219071749909079,-0.6111840967150877,-0.7683699251574244,0.6022523913841444,-1.8776386773087683,-0.29375243022357345,-0.7315912427719061,0.625226614352625,0.12374725831703598,-0.7798316183911509,-1.3906621072392868,-0.24666026232499627,-2.740735047351463,-2.339358084997132,-2.7889830986914044,-1.5355030667694305,-0.7198289385164391,-0.8270862468922291
009,-0.1624773970516321,2.2500731043647515,1.3877618932772213,1.8324939286749653,0.7781515628762649,1.1413961650955988,0.07874084052346458,-0.20077185656115776,0.4564904503204048,-1.6608836149051602,1.6050884147004483,-1.0327402319673946,-1.1847033698441438,-0.6780467049789349,-1.334548135630671,-1.7134903870026172,-0.6554011717314799,0.4183472995108588,0.9053138262898114,0.02031414188337971,1.685262778360537,-0.5343058091732082,1.1501798282292124,-0.2742928973460236,3.329689662671922,-0.6257302011616592,2.7300046894277297,1.1361261044672486,1.1491389405778283,-0.2576078465667749,1.6250335467911599,-1.934764323237503,-0.8828856707488171,1.0386122991270583,1.3933049434579479,1.436875828072773,-0.7786626183771659,-1.2527523889893408,0.06303269059893107,0.6771993278612757,-1.4072504387364797,-0.21589904919517006,-0.4169040819646819,-0.9806427264659288,-1.3802561298082785,-0.7137549644759453,-0.7441069123495929,-0.8128291378173367,-2.4205936567303032,-1.1143405294417383,-1.917451571884034,-0.470953740862733,-1.0730284047880672,0.14412481192686655,-0.700719167783107,-1.5622637767470033,-0.0975863124059625,-0.17662313251232598,-0.734960527512764,-1.4062893452876701,0.898452791159418,-1.995328514437217,-2.88787075069301,-0.4763752485563582
010,-3.144029522825891,-3.3275367943362095,-4.04587458017231,-2.110352013908398,-3.2430573323812597,-2.8827238699326174,-0.3437888937701304,-2.963022150635293,-1.3861640712269432,-1.9714988850930957,-0.4300442247208137,-1.757369570349713,-0.13687419276794843,-0.8074235817906414,-0.5383889585987485,-1.462079437429264,-0.6296488666393374,-0.3233033567037355,-1.910499133585211,-1.4674721218427906,-2.0947078730764916,-2.1668570353633863,-2.318670232444921,-3.1834694704062594,-3.846600943308662,-2.692811116067854,-2.6348141933289546,-2.0290474013771567,-1.1181749958996163,-1.695970619376098,-2.1574124520310938,-2.8175098469936994,-2.852442816883279,-2.042870632640985,-2.8890485437516724,-1.6793772240649776,-2.8413916092783973,-3.26580617101013,-2.6162116381683522,-0.9964292436581417,-0.7819234303196767,-0.8969940270185073,-0.4591605611052805,-0.4560698460456982,-1.460578101302576,0.3037557446894408,-2.547409018353034,-0.37032003816676784,0.14531098419614508,-0.2624644914584944,-1.062199239897518,-0.45568742396651846,-1.8711609803324718,-0.09087282431592314,-0.7549669236057233,0.6035014264275812,-0.034602794780779045,0.04544516915366403,-0.48591558507126287,-1.8649154609992542,-1.9676105728352347,-1.5859057541911135,-3.4395633796281775,-1.6186938671021227
011,1.9477360824434218,2.8899196695464124,-1.3452686997687984,-0.5739228264259078,1.9698331483379796,4.827503095610496,4.217791034483604,4.851606044778558,3.999457544098993,3.710318202338507,4.427189766657792,3.5846815638387732,4.320966802781643,3.6179508919794374,4.565615039858295,4.374077032624817,2.761644359413685,3.8421422845706763,4.402214303599104,3.198760280770113,3.741382133048765,2.210477799652854,2.744526986920159,2.949061323293057,2.010392601664464,2.549898422368162,2.8198252866691274,4.270804939982804,4.232884976229685,4.42039593769414,2.857423518583901,2.003171989212795,3.9282763804941903,3.761762361643854,2.3247613524295194,0.9728604859831148,2.248951102788407,-0.2755527764759193,2.8827673525068542,3.2603975808541454,2.7736577626693273,3.0717086239491125,2.31131939057734,3.6287839170839558,5.08258081154157,5.1259184023398765,3.9852486251908776,5.1877389513819,4.60663949857142,2.7644189872721463,5.332654086393802,2.9945145324299216,2.926632231380061,2.064371597332082,3.834016423791397,1.9977321938775094,3.3797180932196764,5.478775674861436,4.059057299395537,4.899569344581833,2.361604629236915,5.0476431323959865,5.013970482475287,1.6439027755503175
012,-2.780256239034313,-3.5082433123495598,-2.530443522248626,-2.848779954472022,-3.562188836535812,-1.7217464440229735,-1.817212791490039,-3.163618686750382,-3.0095103878562077,-2.260044664946757,-3.8361120932406654,-3.124714234812224,-1.9737767273987705,-2.821850844118134,-2.821046714036854,-2.0601193430676172,-2.430611834684543,-2.8616213027115345,-2.2352381840756936,-3.3089334733403075,-2.852264995941052,-3.373361858238283,-2.866351876141431,-3.0673101976774393,-2.8061787307108284,-2.883199926882668,-2.827955131585503,-1.9897490015458241,-2.8494525519875618,-1.476317672158356,-3.5105332066257593,-3.1021859675232326,-3.7620146335940223,-1.5678063598356462,-3.2103915212298664,-2.0037431619269643,-2.5104109220236728,-3.396744844075804,-2.7154663993217176,-2.9000593650962387,-3.088626528576456,-2.484863688471723,-2.9976023473216333,-3.5653732065178065,-0.4411965018553074,-1.9075040094654914,-0.981286721850641,-1.6797829657183905,-1.0971170498575558,-3.3895410746355514,-1.4088477247072115,-3.488044154290917,-0.6739310661818867,-2.831698916969504,-0.9621810533289439,-2.5449547447881566,-2.406586400036338,-2.1298787684159293,-3.480065944377938,-2.90182535791696,-1.9274447902821736,-1.9339404754093543,-2.5571388100408616,-3.8066961378670463
013,0.1515610449465385,5.650111535196597,0.3850459441185214,4.078842555134699,2.9756358014706654,-0.6608357422703532,0.32297148202382975,-0.5206349031887201,1.2318073674386407,-0.7145557312671037,-0.29348698560712877,-0.06520546609350747,-0.48513943039766344,-0.5787171940403395,0.1107467194744729,-0.7817672708999517,-0.753060856769247,-0.26609747924612026,-0.46486969337868195,-0.6679579796327076,2.171141522777189,0.13473773022690588,5.284412677750727,0.3384837838614342,5.6445539754892184,-0.32211899039545994,6.284968986521307,-1.265539685448417,1.0175899203401362,-0.16864998647392798,2.5199653455300917,-1.3227726566985496,4.9070042199760575,0.038342359140640214,4.214547002279891,4.507553413816035,4.965752674528218,0.6470807147358026,0.79346392660383,-0.16331164741981097,-1.233356830577954,-0.3510829830062515,-0.37643106035828844,0.010780129419330653,0.6470283579899561,-0.13096985985673887,-0.25964864096596924,-0.2370967508502287,0.03557815523452673,-0.4431202786419208,-1.8996955212996212,-2.947523717555942,0.7154413518687789,-0.6322340490186975,-0.953084740178812,-0.04144679377673177,-0.35736255771206843,0.3966935249451021,-4.113054522280193,-2.644115098512582,1.8957332171858057,-3.989787167248884,-3.2277124849653966,-2.87787214746328
014,-0.5602687794128132,0.8275096591774012,-0.4680932207989029,1.0555992321025012,-0.6126994082433681,-0.43894893290612874,-0.28396130227242034,-0.2602440267541189,-1.896486715008501,-0.8521734129987597,-1.832286267053363,-1.6159668547357522,-2.8902829042787137,-0.09001222524370653,-2.3566939511978293,-0.46803106646520315,-1.6093709364729258,-1.8239999472460489,-0.07053780611344374,-0.7047794521510797,0.8640774666946329,-1.2136608112229592,-0.06616335001789875,-0.213954386449912,0.6458281414158348,0.9993251433236874,0.9623791929558423,-0.3164858297537079,0.24367831566403209,-1.5349266550116123,-0.10058788564430066,-0.7931224188474177,0.34425326418759916,-0.6130951847145294,0.7961315488343146,-0.07767666213990126,0.5648451657487727,0.5615625321777974,-0.5085918081623197,-0.5272702066080788,-2.103072725960972,-3.3187249674087993,-1.455155497940824,-0.8705223914505236,-0.8265810401857764,-2.868905167021075,-2.375533050791633,-1.8988631831990639,-2.4446307859503915,-2.1959479448820476,-2.781421393576982,-2.9324721437615353,-1.262743248226293,-0.6078917606764671,-2.0721897747987015,-1.0784653877329946,-0.5969165153090513,-1.2354319621695118,-1.0363178128709538,0.2681493311326011,0.007141962678718916,0.3074120419013157,-2.183693021044256,-1.674608664325695
015,-2.9966717881967537,-1.376831038987763,-2.5697600623491623,-2.5937839045608233,-1.048046130088196,-1.3882183429597594,-2.9717927634996157,-3.4717814550491912,-4.117786693274462,-5.214301510621512,-6.280182670833016,-1.924895352781644,-1.1913390859522324,-3.2608219528269773,-1.8440411528366019,-4.3921501072056675,-2.3100944780587773,-1.3649256833918777,-1.9367547687124034,-0.5379336916317268,-0.8555946239173593,-1.7486473471719541,-1.6128373820189355,-1.2549051187680182,-1.7379270027878029,-3.6237909984085004,-1.2628268636445787,-1.062606719526611,-2.700420848067519,-2.1643530305443788,-2.5649900823698406,-3.028897287310325,-5.164097503596617,-1.9067608048677707,-2.3353560611022477,-1.7908416286174742,-2.479138363972945,-4.073265889204547,-4.240516526341313,-1.405127222840928,-1.3703572391321306,-0.7547246070053866,0.19402699764600434,-0.6421171009957105,-1.8095585246118,-1.1118065245456668,-2.274538539008695,-2.0461795576560537,-2.6556334657304537,-0.645860728622498,-4.136609660665835,-1.4479708153533242,-2.4007543981807458,-0.9921108064606278,-2.1425082771572743,0.581289510838723,-1.3886106400838343,-1.4775192572421925,-6.616181305339043,-7.297693656641473,-4.984524696461735,-6.505833372413612,-5.449536157048868,-2.404804935944378
016,-0.8564847502879254,-1.0774847437721349,-0.5952970725016887,0.6813003179194136,-0.15980569569603464,1.0570038579136023,0.8408581532189192,0.6560377029224393,-0.7130600079439791,-0.9009058973252526,-2.8841741423863168,-1.0227779422054395,-0.5062876399223857,-1.735781565221091,-1.3429999674701523,-1.5990748149480039,-0.22030164346544356,-0.5892442555535184,0.2708670202837526,0.41769986411508686,0.09834853191233445,0.27315076278958866,-0.6596685037145067,-0.5529293134750118,-1.0475700224867301,0.31410964558857785,-0.374735135033774,0.9748840137556682,0.9558321922587828,1.0198356914073534,0.9744797863572096,0.36031871527718196,-0.7303318217438437,0.28786683257607604,-0.8906105405279539,-0.06338001966752982,-0.10337738270266411,0.6498205332679148,0.5064786843611951,0.11327251047009768,1.189664426609181,0.094630423131008,0.8815418578412075,-0.5677520964245657,-1.9787156590090444,-0.8668957870936365,-2.5986500007298927,-0.36337649616138185,-0.32474508161553267,-1.6900090055047405,0.6829685198967983,-2.133497536246739,-1.418409271595318,0.8322982688605941,0.6174937562341731,-0.3759597518762693,-0.9331561748341364,-1.4255205357877685,-0.7824448343265424,-1.7751185138434977,-2.722634856947786,-1.8929758760157158,-0.6216235797853238,-3.157394415215063
017,1.831868727901162,2.068354565577234,1.9640910691032802,1.359714117957554,2.0170891537650277,0.08245938258779006,0.20797523963536377,1.5050543456822347,3.392073836536686,-1.025188315377406,4.395980541285894,-1.639876076228539,-0.1648788341268338,-0.02809616226261369,0.09643782321059952,4.189448068435085,0.9440069745095585,-2.3739221668058774,-0.6510312562005393,2.4697974320008353,1.9331714839177494,2.4210632228268136,1.829534617481563,1.4607124137972334,2.3480786829580995,0.8199303719066213,2.116440999926532,1.191477735096395,1.993933593867419,0.11638160630244243,3.3270006115349218,1.1052512866788071,3.034128718651114,1.0979098276571468,0.25415989483691287,0.833205129768845,1.2910775407267225,2.633254846666192,2.334365818853884,1.8992984889402214,0.7867110849768955,0.6213159557679493,-0.6503790374058868,1.1259073249118248,-0.12631326406225862,-1.2192417496812675,0.7900792092291282,-1.1956759645464992,1.2120604707090123,-0.13973580892966375,3.016033819433498,0.2995542766480671,-0.02885792321059233,-0.05167209509717152,0.547551606828221,-0.0643777861532584,0.34554180735065443,-0.1109249585346801,0.4537187152043142,2.5298992266398357,0.8342298540051167,2.9864514151789243,2.3259568515248144,0.16365391891051567
018,1.3206366523423592,0.9939457810684985,1.6636882339750345,0.5746189898087595,1.3363721779910667,2.4175179636085353,0.0688697797578719,2.2091165074011183,1.138782969929266,1.851756713917894,1.0005256896104102,1.2125484110828302,-0.1891256343195708,1.1216172354427534,1.003402623353014,0.9717032157023813,2.3343087792805104,0.7738722531794632,0.0470873843267508,0.8469017958482268,1.8011329558974412,1.9002543656963844,2.047927109205746,2.0178061343183304,0.36060051761206413,2.0549534000630967,0.8504599408674413,1.335859991259253,1.3503330687209691,1.4782871015219898,1.3490728754740187,1.9818721856560866,0.8769522578613602,1.0728240414023495,1.412638152589725,0.06994442583749283,0.35811346346376094,2.5638187526889817,1.761334891194926,1.4893655219148145,0.6193661724590896,1.3565827288413317,0.6602312829077225,1.1034664686161142,1.0132578706294013,0.555176942117967,0.44200420361813464,1.03242867632648,0.8700150130660997,1.3283935177008184,0.04513120704282991,1.4494714638775195,0.428205236741376,0.9271238202431671,0.49879499503375935,0.3340004387101071,0.8274938626700784,0.7875131487500685,2.6317609638174253,1.9309902822138052,2.083336432113386,2.109073996375463,3.3138152043578737,0.7933098339905684
019,1.835400528200171,0.47310721676125994,2.212937516332573,2.604388693703715,0.19961206143776056,0.119966506961934,-0.918297513451303,-0.8505983748766783,-2.0940606196818417,-1.1908973329313872,-1.5697700671146886,-0.860170968631036,-1.0155798378227794,-0.26451297657133344,-1.9005405653243408,-0.4007870012494994,-1.2689904599022461,-1.2493020102701677,-0.4975524362114394,1.0509105645286478,-1.1569055473495493,1.231513205313734,-1.6294796271593959,0.9571881687787669,0.10101043044949565,1.4871748975209482,0.4666714273384619,0.9140668797988508,-1.4872734730634902,1.3142642561857456,-1.4474199505941856,-0.5433445742394475,-1.2209089960053265,-0.028109158423223368,0.8272329950089843,0.6955883392131668,-0.02031154895549203,0.7799783172365465,1.8484747968302324,-0.29344538322913016,-1.907291499019995,-1.181830836817159,-1.2586079349771202,-1.2001205729237214,-1.6351733613799233,-1.463962365279763,-2.0804977222368577,-2.2276666228527024,0.13076752226657806,-1.862368351785689,-0.5864450951272904,-1.4662789414549786,-0.36397303044197943,-0.2930116501409231,-0.6771153082461094,-0.3360765948444537,-1.669665172946787,-1.6753309204570885,-1.8179563708355002,0.6255303022733111,-0.8606320609380763,1.50906618693164,0.09143411779727012,-0.5178655659444198
020,0.1254473508855256,0.5775830910834527,0.15913928637178848,0.15449868201898476,-0.4521032962457103,0.8983447533810016,0.9592852024274603,2.5785431031925423,3.9054101735677365,3.291412760664017,3.5297085325852247,1.071745566122459,0.24589675216950907,2.7802858458329514,2.0357973854822937,2.2164154647084633,3.08219035735951,0.3744504498180825,0.6022146478981276,0.5767248647144099,0.2015842499212046,1.9076579153944864,1.2104539192189212,-0.8293423418258794,1.1486441587253902,1.5711856500313564,-0.060979962697743584,0.7503968114994224,1.2659983380711795,1.8760225257579284,3.048852705098943,1.9648594670984796,5.692470354128014,1.577548440446923,-0.9723419953865673,-0.17297085458688854,-0.25027783301441553,1.7057144640160222,2.696173992502761,0.1703903847672037,-1.2496972935657091,0.298826901798942,0.7246943986243428,0.522441367786467,0.7623729793319489,0.6455093532059679,0.45660810712389377,2.2493623776116785,0.6387669332851036,2.1229041383643263,0.8849999625623761,2.249256130515911,0.5451208707154456,2.003074272770907,0.35878870382876726,3.029848000955792,0.4883929940635135,0.49985695456691687,1.382468609654536,3.5245770672798664,3.9686974708951803,2.0503267236328937,1.24295524993747,2.8538157140923075
021,-0.6886627354538577,1.1982723958552404,0.8779905455796477,0.01582584887735483,1.0748637298053343,0.6937519726208284,1.593900318344466,0.8283866023433051,1.2630358634801868,4.0033347761467475,0.4545987471328,1.4161453741673986,1.0735513045431917,1.4309119156483323,0.627384582840045,-0.009436814636634427,0.9218938089745473,0.8457314314272169,1.12476540219474,-0.5049418857786188,0.828025500408643,0.7126190222754942,0.9302000694840232,0.6904396701197306,0.3954859507952202,0.790480505367579,2.412677367883513,0.5835762130287502,1.4395243572235739,0.7538183835867585,1.524701756012146,0.10217058631631543,0.9108263607985804,0.505068350816972,1.4920082717309906,0.6876875434488716,0.8526902962936777,2.0141986579009554,1.7510546740785746,0.5658894405185549,1.3543686974132534,1.6769469549748117,1.0527253754911985,1.81545261415691,0.8315833337104348,1.838400704698879,1.218886279233663,1.482668946765382,0.9354547510793289,1.2023969921777427,1.053494112311187,1.5977826112084936,1.370394101182699,2.4398876608313085,2.3407795281574395,1.3431799041564658,1.2553998947675378,2.076556090618492,2.113336048633773,1.0643870570037104,-0.4357548618762042,1.1143630866841245,0.8125200721311979,1.2479975234979177
022,0.6687807760074924,-0.47234374224190967,0.05247952444429527,1.6880720521402373,-0.3223865618041519,0.8738758068571981,1.7465539034093558,0.3417972706243293,0.6320812585041768,-1.910189004292193,0.6431771955549248,0.6052662079024218,0.5454589148715799,-0.3087890877094505,1.0211235254216482,1.0712093667960767,1.4130557888378426,1.3956514347645586,1.2556859046076547,0.2874115022586615,-0.9841180804701776,1.168382506052253,-0.6483614229895505,-0.11550275883864392,-0.35253478880276246,-0.7967385156261758,-0.7472460275933823,-0.2883623361849263,-0.32939659282820466,-0.5983974720276073,-1.8848952191626378,-1.451443423921852,0.3087684008472549,-0.3779042422601548,-0.666876511275919,-0.7123578879985912,-0.8824707297225295,-0.28672494789683106,-0.6478935488619435,0.1332275691626611,-2.0601025864624347,-1.2323817196599534,-0.6401496260323571,-0.3535558739609992,1.7806229474179722,1.3233622788458477,-1.236821781572921,4.541858572884677,0.44722001428639985,1.0749877641285714,-1.0939238069426458,1.3074756684736517,0.5528066651704016,0.3286351328557306,-1.074934337971687,1.5443143094603866,0.27497252810366063,2.1320590588801016,-1.4192515055047408,-1.6005295243088447,-1.9566569745671973,-0.3731728524116429,-0.9312859661135694,0.8239132442471498
023,1.7247758558942823,-1.124772897698408,0.4537295005071633,-0.08576011388232391,0.4126921798994613,-0.1465851471325486,0.2632547352960597,-1.887381548415545,-0.4373697048132877,-0.8416870414464481,-0.2951396056973054,-0.597387412339341,-0.6084117442851524,-1.429118367782628,0.4459399905080173,-1.8127229499710418,-1.7394938107784528,-0.5461122498214903,-0.5153068753146666,-0.1548794293350727,-0.6397626094522153,-0.2637108337672172,-0.500804417524696,1.701843186258848,-0.5945049439648662,2.119101343980735,0.6600347735330461,0.5244835151183334,0.35125118645192427,-0.2684688634111176,-0.305575681637303,-0.10394918236767375,1.2226347179388581,0.9929452228430344,2.282227983644243,1.149757160089237,2.4932646012653943,1.1920991102302398,0.9217301759582789,0.21948256118667303,0.4450548366841408,-0.2968308468712277,-0.5337652814378826,-0.10553150549448675,0.41570263995039014,-0.5615024726259769,0.32617004766111835,-0.95347234620427,-0.9135059951690718,-0.9102373961680741,-0.7842121890163685,0.41757061584645516,-0.4041461034711621,-0.5995798662140577,-1.8634945714127398,-1.6707191310122416,1.2849628346147943,-0.25532590699893976,-1.9545867575168097,-0.5917345212040759,-0.3070662936334777,-1.2273188688463008,-0.11093459927430399,-1.6562285096990985
024,0.23632966159824015,1.3234474917396297,1.4728675893846552,1.2402794601476796,2.9701377814998717,2.929833513043531,1.2788107293097233,0.9747736051649388,1.1793484190503793,1.0041097174035998,0.3967966283126994,0.27505146382782636,1.5510687512556562,0.3674881107443474,0.5318160855486207,-0.34794768866352443,0.3825091599511071,0.35672476902715405,2.416664579454853,-0.26654980781650495,3.0537190312216085,1.2004946309234243,2.3461181504942488,-0.5343210892965339,1.253153439201699,-0.4332812665669128,1.2925425791752383,4.363486881364745,3.1648667644025354,3.1773088124498687,2.5825992425749096,2.0669816820827385,3.0173676814575443,4.015393134758586,2.795768432465299,2.163795159720046,2.5104260079454965,0.9577433923957797,-0.6416313092936679,2.5762507044908673,-1.2964157911196155,-0.4024023038271689,1.7206534875063433,1.2902709566578534,0.7515102379246101,0.19012797224554012,-0.6652126752262795,0.7606804679177669,-0.35637185443288605,0.279846789189625,-1.0244873608808702,0.12956703291987715,-0.5371232690355994,-0.4051312205602611,-0.5096607804612592,1.183572398773686,0.5340055873578415,0.7078251262702752,1.1760095874872507,-0.7497998817282554,-1.2420543934045112,-0.17009575406606164,-1.159292037918894,-0.9746902612864914
025,1.2031950282223973,-2.6001531281318875,-0.8505677515837853,-0.4052390393887936,-1.6992325574789344,-1.733001624422182,-1.8232071267701948,-0.8385542145636375,-2.0038086843487246,-1.2559897872258747,-1.261163540221732,-0.7256862624151463,-1.5905883037134352,-0.8697577713219808,-3.084634462368303,-0.24484578944466756,-2.536657476736403,-0.9164860852793238,-1.5456104726422681,-2.458977856605947,-2.116824311881233,-1.5211012394539982,-2.058409857899087,-1.650106341521368,-1.7637061989545688,0.5828422847658491,-1.3871930264711285,-1.1180275655528906,-2.58378356487276,-1.549688215481929,-1.864708313775641,-0.9545480750064601,-0.2899065786965671,-2.732056132319262,-1.348315694315141,-1.5987461507981733,-0.7084182184565145,-1.7026378422701867,-0.6236220818139983,-2.4957004232878,-0.19543651320036937,-0.00425598922149889,-3.475861234397178,-1.711040121641803,-1.0498823223187999,-1.907701048742639,-0.8395832778011842,-1.0800737949096177,-1.120612830457794,-1.7436826737505307,-0.5535558883315201,-0.6073772936976531,-0.8560678235104926,-1.8033635044906373,0.1627400988622601,-2.232144237452583,-0.7142333102058169,-0.913929823876813,0.11610780833526946,-0.5576815170686149,1.0856133086378208,0.24742264633137218,-1.2857817685662103,-0.11233411062838655
026,-3.1459357938108266,-3.571230843026049,-3.2756960874873324,-0.8748858145574762,-4.182242808502027,-5.527222690480596,-5.746729332905128,-3.573234355976752,-4.134082143768923,-4.386181725694612,-4.253098030725897,-4.4140261061344095,-4.337827111965956,-3.7474289028481365,-4.176359927285618,-2.7440074630013536,-1.9240050067838304,-4.584776895906215,-5.249266704603863,-5.22348272285602,-4.865723902384855,-4.616190968222006,-4.274255152388086,-3.726483749525427,-1.9917369256861552,-2.302619679192682,-1.4756431631586238,-5.129106638491706,-4.999191468767905,-4.191030416520095,-4.4730378913950775,-2.719818350573421,-4.4105211170655245,-4.512043260592081,-3.2134945132382082,-3.0298185269410003,-3.3129791006321985,-3.892607643164152,-4.137364023344047,-5.222891692466613,-2.495896277633081,-2.078982609659853,-3.7041955796024206,-3.6837153841194152,-4.712168898300009,-4.945355313623596,-4.1459749997268,-5.258898421865115,-3.346190710015006,-4.432448299842638,-2.631640921835999,-4.55180535176077,-3.27222711948143,-3.8940817507898293,-1.7646358746465518,-4.3041478647487965,-3.451153950160369,-5.103072892221317,-4.396448486956376,-5.918185943822372,-4.011274629982716,-5.261173544023426,-3.1204316144747684,-5.29136341882849
027,1.8674170580936404,4.713217845795667,-0.13250173517900937,4.070094357771366,4.254147997264962,-0.08891029841228026,1.4123616603874254,-0.9590957168497999,1.1439741703527722,0.1191837882165403,2.7684364346851313,0.4244038202257675,-0.5571489896053268,-1.3354561127311426,0.514516130946787,-1.6940444142067177,0.1999618083776043,-0.759613499146689,-0.08928935658890569,1.557292699510753,3.2461642661214576,0.6014043439057528,2.998674775608033,0.9592551551559727,3.1621605203177303,0.7530020813481382,3.5507854725480743,0.030394605220860904,0.7276806688429744,0.23762735784709504,3.6078496816350447,-0.8944391723381886,2.602793850986732,0.6893474961616541,0.8554500522666568,4.899097185874784,3.5633680149170366,0.19664911315533445,3.3563011829764546,2.157002162097356,-1.7636625097600374,-1.55356308094661,-1.2735274276510276,-1.0692918772015299,-0.19912297178663807,-1.1133228590444393,-0.9754959236284353,0.3853760629665707,0.15023955335338535,-0.09565391465148737,-1.417043891687981,0.06450464935180639,-0.3376492145975026,-2.274563526253175,-1.9488696136490373,-1.9187391036242003,-1.515925390064456,-1.4743322649295378,1.892658208838876,-1.4878229011874262,1.5578552554412293,-1.314173452455817,-1.669957505883867,0.4146002425921079
028,-1.08485561481567,-0.6890757569874677,-1.1518085485773917,-1.237488110232732,-0.21884383768213922,-0.3883457304646902,0.28558901513486684,0.40165855802883127,0.7183519091773711,0.30810468321999074,1.8944453881563421,-0.6260324970728525,-0.32475291369149806,-0.44776583180228985,-0.76824053008373,0.9635629754989593,-0.32168227889559725,-0.4157679511969308,0.39301662730312337,-0.7922802447310093,0.5372836676996462,-1.3101370985861251,-0.3445064071625844,-1.1356714611908627,0.024604116527475683,0.14735282978671926,-0.5656728987355119,-1.0821563989402172,-0.9424873713427362,-0.40917448555023783,1.4031307246293014,-1.2909435605539765,1.161240157132144,-0.4950004910881687,-0.9261221134849436,-0.5798595943534719,0.39466801659394657,1.252705858229584,5.955928462831485,-0.3123185479994095,-1.2293176184803196,0.49866273453980514,-0.46204065183481297,-0.24488865032263485,-1.2673688398195975,0.5986282422018354,-0.5658869711796046,0.43271704441928505,-0.6913033549373075,-0.23845861847318583,-1.1741332499721968,0.49085169013072255,0.061124851535172886,0.29100321762780856,-0.10893151205592932,0.09263711612593606,-0.3664479714852254,-0.779970195988716,1.0118789312082759,-0.2348312604709683,1.152868028226472,-1.9428680269495358,-0.5176227581990857,-0.4059862260536717
029,0.7676057778708736,0.31234578015454284,-0.6173432459770144,-1.0967273930652341,0.5556089910898232,-0.7913288956413165,0.3963837796072347,-1.0612766065412989,-0.856165219578936,-0.5850178294212882,-1.3870708287728095,-0.21847556274134355,0.7849768068787623,-0.30471034825709165,0.5493400202905425,-1.1169085884472436,0.30656574576645784,-0.8440980596002483,-0.7189655922373003,1.7331615732224224,0.7146848332982731,1.1074773700941571,0.5761114496000783,1.0036795689509384,-0.5216014513191486,1.593739059086362,0.057090446266826966,-0.4819262608948597,-0.666734189507682,-1.451319386006567,-0.9655845146215045,-0.9309423157946414,-1.1648114790543453,-0.5159757357480713,-0.016249079921380083,0.6229587408867114,1.0410143320737273,-0.5958539169651552,-1.2466197734187763,-0.3805232377986064,0.5171646527543254,-1.136679776279124,-0.20251625506538062,-1.053218290242981,0.27164201421880874,-0.4645448499295741,-0.2650637280372803,-0.41938070181787995,-1.1052328411876269,-0.026965367973001197,-1.4910768312620883,-0.3748111135967215,0.29826540128180706,0.4825569946333599,0.9171256861886282,-0.26616236828866324,0.22682413342287477,-0.23274533729251257,0.6828900171090259,0.5050857829679913,1.8351850351792889,0.0005211139759588868,-1.3506268106479893,0.3890978791348
030,1.2307766193063068,0.25012725838668254,1.6774907823506175,0.3307600127196631,0.5704547502335205,1.929310449618423,0.6092019707672587,3.7032765481178456,-0.24352123041804646,0.7223499733156394,0.1424533663497578,1.7948559795789745,0.8571064500942012,4.11123210430404,0.41773407662902917,2.6112014787021414,0.30404678079173164,1.4126952447788885,1.2299030008845464,0.021182691597286474,0.5669329328852403,1.1235814468266065,0.5425877554095211,1.4275973524069017,0.446331414124994,1.2288976403734861,-0.9636073146677809,1.8753890078798638,0.03870369897338616,2.4822010461502906,0.20565914564441318,1.1552889701449287,-0.12008834682484099,0.40294753476820633,-0.6094960740752176,-0.2940525445420046,0.21127834879577423,0.6182346222244747,-0.7664908630365543,0.984788645805095,-0.8193953146953349,0.39597092098998904,-0.6638234389355919,0.5955025191958466,2.1076139722186618,0.20808811054531307,2.489003868277299,0.8073444006931093,0.9025837871086995,0.3055587074138731,0.3353816489167018,-0.5628963571788365,0.8734594611396873,0.8111323028093209,0.1765228787710289,0.5858563380694888,0.2195940331786957,0.2004395049689383,-0.06722425028735063,0.9822395195239351,-0.08823330990556372,-0.6698348807197828,0.7224181925369282,-0.9318358294700003
031,-2.504487663907944,-2.4016121766711875,-3.7984486514787217,-2.72683836204012,-3.177309814064326,-1.1659352979157305,-0.7508017926580641,-2.0067725873816977,-0.21370536427585962,-3.19509050832378,-0.9603613741344021,-1.3479945856141529,-0.09860852077139909,-1.7083420899538488,-1.0161806095859705,-2.085915946670436,-0.8669248342896246,-1.622120686704825,-1.1534306233298355,-2.558547526168039,-2.3048739408626813,-3.3100937251039997,-1.74509422397407,-3.2388071809809866,-1.1180525902952283,-3.680620126496619,-1.1273258480511315,-1.6480886926799112,-1.5657514719220516,-2.641946254205772,-0.4186221754395964,-2.45001161574076,-1.3653056156457644,-1.399163122489646,-3.1249383997636055,-2.302216409973928,-2.7536804185596457,-3.66047178656537,-2.3009059410112394,-2.807732338765993,-0.8767054593770656,-1.1573384669029858,-2.4672840912846445,-1.357438575360045,-1.748421052884697,-0.17153684823682303,-2.0004833810996834,-0.887881388741349,-0.6013133889752047,-1.7779547531855513,-0.27406842531050735,-1.1338274522984202,-1.9274528335248133,-1.115664853082373,-0.9086177820879624,-1.649552594520585,-1.4909464077783432,-0.4432343696874136,-1.1616247429332984,-7.165071089554417,-1.9363181486395504,-2.6490634274557268,-2.1963071782460917,-0.6579712152252841
032,-0.8679167000174208,1.106163311158543,-0.28342007255439283,1.1924107315934767,-0.1976986532102039,-0.44810940030197854,-0.11595338002302835,0.019866254837785702,-0.6127934121666723,-0.98526887067984,-0.4251270077946739,-0.5558741261182467,-1.584988849089986,-0.5971732587823233,-1.2063983075550055,-0.018973666842999337,0.11376785088137936,-0.7817365620899928,-1.1524651099450391,-0.7317154264525989,-1.7005516205194287,-0.15576162602434823,0.16343250374845963,-0.42351056661717057,0.35771638483977297,0.875862412479208,0.2855569590209719,0.17127021295300587,-1.000540247950111,-0.6376573384704084,-0.9601319401258608,-0.7938310171086286,-1.7570537937061501,-1.3738686474892552,0.8988756738941552,-0.4606110566579715,-0.5735686658379842,-1.3306682186807754,0.1163715759602878,-1.2734296287139861,0.13098283473834538,-0.4721026817775269,-0.8134996377957061,-1.1268386633534349,0.0755361289009161,-1.073226090844847,0.7552191711537335,0.6932426411043726,0.5225013749226514,-0.37275304714540486,-1.4605680855308416,-0.6370394888895277,-0.16345978370348863,-0.8019655653536188,-0.24810541183717483,-0.5962452838509806,-0.5878871343786178,-1.2668685438929086,-2.3739653518485073,-0.5636817866949794,-0.7413417316883777,-0.39159909610247134,-0.7392533834736258,-0.15606375247593207
035,-0.6126923349565419,-1.454237566007031,-2.0861621791295137,-0.7902046301591574,-2.4996069776929577,1.151942482507769,-0.11574577335858827,-0.05025130667865357,-0.08469916981278619,-0.36818284786694544,-1.5727238892335489,-0.06371001483431771,-0.26645917601356595,0.058964221261839866,-1.6462436665724698,0.3950205698811811,-0.7883887527589073,1.5873138134401783,-0.013913407016634793,-1.7549898758329228,0.27579346458323195,-0.6003860720333183,0.08550742416939427,-0.9734176105056644,-1.6274175705770682,-0.4012869948306169,-1.666611140550544,1.1268066457623314,-0.008899291512879659,-0.7840459393229819,-1.6191988712789442,-1.301502012996698,-1.352064153071137,0.3031396383738695,-0.7867446090300598,-2.241222847095038,-1.2388859227056956,-1.02758662757419,-1.4208733893026904,-0.6069358825566937,1.6956035961287559,-0.8837451401837406,-0.24871551915420892,1.2682007537972149,-0.6618418349211488,-1.2960191568223869,-0.28112013100197947,-1.0592078454108513,0.7376607386706755,-2.0355689574512414,0.8560931211422618,-0.7802367476992289,0.2433077368205166,-0.15718066484062898,-0.08051271398449322,0.37603413806587305,-0.623356529589026,-1.350136879132239,-2.104471332154088,-2.850192512366388,-0.9191630824350423,-1.3360818166433348,-0.768700827610539,2.1853848872145356
036,-0.9693578903731406,-0.9901886208305464,-1.457246561869565,-1.297290115374539,-1.2435212393243256,-0.882228120999961,-0.3439963162718596,-1.1668137752331245,-1.3101879182769347,0.7154784760290598,-0.4842545252798409,-0.1463529119915658,-0.19243553201127406,-0.22796534485307046,-0.9732544962154486,1.297702126338595,-0.8976854534252849,-0.8537090961867426,-1.1340795139405326,-2.493825274255203,-1.7514661208252555,-2.3619088807844077,-2.420684637740365,-2.1118008818361793,-1.0281893902928751,0.049444891907783894,-0.4196680676056424,-0.8913619205270988,-1.2377529875139486,-0.929564552664548,-1.213801756628815,-0.6455874582963621,-1.2945624159339872,-1.4912105596854812,-0.961218299669178,-1.227942145219605,-0.2646224312893153,-0.5801812611459538,-0.7524832773140223,-1.4734033326345066,0.7818721471522847,1.061080160190357,1.1654890036381957,1.781927431027015,0.19314930219972387,0.10549556325341475,0.16729708715073555,0.16618661104611898,0.8625273997628181,0.2983127821028087,0.0820785030670439,0.5906210719065665,1.1024668075062563,-0.14851250108588843,0.46318064731116654,0.40340782727113383,-0.2571872292499738,-0.760467622629601,-0.9053698075045609,-0.0906257818712013,-0.7041550890163508,1.4672483166808323,1.1659019347661226,0.21233373721600796
038,0.9067545379211461,0.3378911401733291,-1.5837929644567403,-1.5618363098746333,-0.03989674190832043,-0.4674398555356551,-1.2972192486457277,1.4747817148956488,0.35249696724065516,5.443786424546195,-0.11633662283603652,-0.8797117310962846,-0.22251955726805012,-0.016990794418564548,0.16795304571611697,1.2479616388287529,0.6089819643454703,-0.9352445067600852,0.23680865558955125,-1.0377200443939512,-2.2370895995925797,-1.796033471453104,-1.9283328393972812,-0.6499224178504885,-0.36585453865644135,0.8716372066686748,0.4209864657098929,-0.34756115145382915,-1.0591007853844023,0.053378806222853126,-1.731564285882898,1.6859960917668886,2.2216859211570807,-0.19453366263668548,-2.0094567523387656,-2.259605470546588,-1.4928997804048314,2.1420843614774516,0.7402551293008148,-1.6333230654126103,3.993412761576345,2.905339396447352,2.534822866964064,3.1385422857975054,0.5781576735304454,0.664730502031601,0.2853993344790708,0.9287117325923786,2.100148479627051,0.07027895612968332,1.3279935993459593,2.5220015379613123,1.1256014825162888,1.4584923553105105,0.7798346412273378,2.3186556137339513,1.6812648600510396,1.2319789225645763,4.1106215572526486,7.087478435922934,0.8414082426509715,2.326253138048581,0.9072727767754709,2.415189901881472
039,0.12073305080421742,-0.3279871993007618,1.1272995148116096,0.05010697389209279,-0.47299300785268705,-0.6481210509804385,-1.223160882818944,-1.1514832856802628,-2.029992468748029,-0.3725721442352641,-1.014513051585474,-0.5664457867756597,-1.2998158745367547,-0.9286747486223017,-1.7765694544499497,-2.6125470684928658,-1.381901392846511,-0.8408948791909506,-1.8373137116434195,-0.6454853541177681,-0.8410674921564338,-0.6308633124323851,0.17653650130331228,-1.8604746025400163,-0.0512538655645946,-0.9659681254742147,0.9651848528492957,-1.3133897284093692,-1.863360771837823,-1.885878882347857,-1.8395147735341144,-0.02537364278009424,-0.1273799212665912,-0.8644762292377661,-0.17313742787716435,-0.2871043766209903,-0.12942399916108566,-0.29332553801961914,0.2441528958723211,-0.1778994991833115,1.8991540711326445,0.43898879378525923,0.19790599927042607,-0.47368495376053565,-0.46223324500608876,-1.678634685405235,-0.9926097987550442,-0.5073045931317299,0.6017526216761516,-1.4304750053294293,-0.32123980467947844,-1.5726237733502024,-0.5523895004663364,-0.4310266065716003,-0.5784724715412264,-2.3525042853348594,-1.1782149408028952,-0.7961068612095399,0.6642550136225245,-2.0630055491884183,-0.900569705025779,-0.44112442397052665,-1.0506706707449416,-1.4532324177828129
040,-0.7164193795484025,-1.6971995858487587,0.42009065769108334,-2.881390433126919,-1.156022769994568,0.4821747854586378,0.8807873257385508,0.0215254633002252,0.15882547192417842,1.4486369433794613,0.9217018778288283,1.4097701043672028,1.11496085907445,-0.26917715744564896,0.6022672086390609,2.7487661600841204,1.3411506059047547,-0.11617926124615374,0.19634491720018665,-0.11173078894205107,-0.42705224252977164,0.1454197609924715,-0.6328090243563125,2.0401844035165673,-0.23446414492371914,1.3492349462190605,-2.3131926556593267,-0.942754836499898,0.4803005363006596,1.1050791989216886,0.1908193391177475,0.4191877725772035,0.39443278101922385,-0.4315201100370001,-1.0676644926854642,-0.8476563313347245,-0.16336313458099033,0.07893132638518635,-0.3024954712611129,0.07006558686813341,-2.6064166344306092,-0.6222724045962768,-0.3927516705767238,-0.38045468850986,1.3884995378694878,0.2770670288472973,1.8050355202521873,2.3240997702647475,0.8253226608985966,0.5677841196376897,1.272501843671935,0.008793279745536842,0.08312714580032865,1.046986003421805,-0.15105430123032165,1.5333452327541395,-0.4150395451322445,0.9637682243925112,1.8236153082003237,1.8423917941286139,0.45895943753474894,1.2515837023786722,1.2234528565899132,0.23712754330229074
041,-2.671506561273176,-0.4835478835080258,-1.4741359760399586,1.6780676341235647,-2.563118555018221,-2.035050632877285,-0.5101432921327088,-1.3611265465114712,-0.2301089556033286,-1.6638265261163054,-0.9609745093242332,-1.010501553349418,-0.6452919854057473,-1.0995691137170855,-0.2226690516199616,-2.0200331681358303,-1.4175989140216099,-0.6011659249607102,0.15291176690362002,-3.20702987867818,-1.2949469656918886,-3.566271322545567,-2.482248133047078,-2.9475529949889188,-2.0730064125827132,-1.2264638653328923,-1.9000233018546235,-1.7453026229741098,-0.21102095217033512,-2.263169265159588,0.3420280797570926,-0.8828617388634357,-1.9861960923290636,-1.6715535199482194,-0.7281796612360192,-1.7805730049931403,-1.5029886203206635,-0.4547201429666718,-2.0516621505664507,-3.5142738274474574,-1.4223429783415749,-0.4616591108639703,-0.03674015793034985,0.9386092400730239,0.43145485910253023,-0.3214223719879862,-0.07737002701542062,-0.7751435213717912,-1.3319381297714983,-0.8313957485727078,-0.9287080498714603,-0.861561428283315,-0.04741986036107321,0.09896187728209438,-0.41689399725782733,-0.9977536873969226,0.6843679955327557,-0.40098918157675995,-0.21799108233379638,-1.9332351588969268,-2.5591908837992254,-0.004184700305706113,-1.7073527822946177,-1.2929053266018822
042,-0.9339207458554297,-1.0763989834443164,-0.7922774073815955,0.12361973752354849,-0.5518319881646914,-0.7285951187984743,-1.2091161879549654,0.7770654113005919,0.6851128084395226,0.23271909732493373,0.3914333600872004,-1.0334509971206054,-0.06397250749419747,-0.3161013819061442,0.1895801924157927,-0.8613951043919442,1.3540752788055674,-1.5164028094116828,-0.97519179270242,-1.133921783286258,-0.24690146500150928,-0.7884237957695583,-0.8304373752039358,-0.24189303958019903,-0.8203330405787476,-0.5159564066659537,0.8547576821693226,0.3159278020083717,-0.4882814912934484,0.7622043139916784,0.5016988909950395,-0.14880859656370343,-0.026748722085329968,-0.19186537264089454,-0.17387850181132936,-0.9731896840461977,-0.7957243441824648,-0.2260734064802617,-1.195944226282902,0.1929004635583148,-2.3783466176479022,-1.980964470808361,-0.4213084869124168,-1.3237759527803017,-0.3126483533832314,-0.4005149133478264,-0.6409302963316652,-0.44618767559629674,-1.8673511757104913,0.9016252093602319,-3.8569316655959085,-1.4767114029451374,-1.126245396942688,0.27557213245339973,-1.3905324732139903,-0.6245652669198314,-0.9793111145190749,-0.7062295691661156,-1.1296386847260917,-0.7626921601372162,-3.133932355360958,-0.1097554067319163,-1.2526922506268527,-0.14022647682545442
043,-0.9900247710328979,1.1915647344481588,1.7155828206151291,5.253145049036607,-0.9995420465586721,-0.7600687532783549,-0.34799268344679163,-1.083290761253227,-0.41449986667300076,-0.3585900334558551,0.24868920248391824,-1.1946885620979764,-1.574098778602784,-0.4618605117533258,-2.45289719941494,-0.5539633662753521,-0.8531788498041863,-0.5901101056574365,-0.7162651116231412,-0.2179543305334814,-1.8684987458644817,-0.7944838623049162,-0.724016417538629,-0.8439819743047594,1.7788997290370743,0.8156222135011031,1.939199002659442,-0.9648947705464372,-0.1510562435679637,-0.6652998128260132,0.9725957729447967,-0.013060224013387689,2.714980024199481,-1.2513698859334146,0.2510486919596159,1.7339230853228687,-0.08975587174650124,-0.4037804479980108,3.3503731672199852,-1.30279257483909,-0.34165393106727243,-1.5726546691445153,-2.2957640741084515,-1.8936333066461886,-1.3645566767271557,-1.9768129869339401,-0.8349855925732548,-0.8772521330406847,-0.822804420001342,-1.3208371314873775,0.14002630529977078,0.6186818739685076,-0.024211448272156877,-0.9140567302467235,-0.7074038434233068,-1.1105349630366046,-2.0970365430828646,-1.4474521350337197,1.3081351929749458,-4.053161660520959,0.33037680666264135,-3.390869840408856,-0.9554303577441458,3.087172501688348
044,-2.004120473527273,-2.8832867382412046,-1.574782370320251,-3.65249561645012,-2.510875732412965,-1.6534298580722104,-1.5509115355556649,-2.1810669476261335,-1.1374963926074901,-2.7901268024614496,-0.7688204497671794,-1.760417642890337,-1.3899900560108618,-2.257869204143664,-0.8354968330193201,-1.9037614947253214,-2.202270040916894,-1.179427238477753,-0.904207444335793,-1.9390192805711197,-1.8667235674815357,-2.7293713241158097,-3.0357288542437812,-1.125305295304115,-3.252729679887234,-2.2176174486431446,-3.204784440128438,-2.3870751129467833,-1.1918533572171257,-1.95086435927649,-0.69070322251851,-2.3579217793015332,-1.9192994693618364,-1.3236913750069197,-2.452722892829235,-2.1305800753895103,-2.1438304191603845,-0.679672823005717,-1.3643004281524955,-1.833617736997822,1.952658996864652,1.6381251245151178,0.8576163140277674,1.1325197083608858,-0.33786953330139086,-0.08909418351268422,-0.4978887850704805,-1.3699441039032174,-1.7177258850166708,-0.9332565353736804,-1.221579843973441,-1.5802105288906163,0.9314371700417879,-0.2582724048661433,0.01537818244885536,-0.5878720932530315,0.33224658929338285,-0.43989141660951636,-2.6024707822143647,-1.3902370187373854,1.3948663116357067,-1.4336315388062557,-1.8313554823989406,-1.505173931177746
045,-2.6702257420656297,-0.04750537229365248,-2.5238092485414025,-1.8831264729240256,-1.394079770634467,0.05634617507432982,1.197812242243426,-1.7604561250931683,-1.1358008799276125,-2.2151148282439017,-2.467803233478176,-1.178924539224951,-0.4974390939339114,-2.388223967675536,-0.5847631685360906,-1.961165641369526,-2.081421779567662,-0.9597723629777657,0.48732426456811967,-1.7666450818750512,0.6374999883916341,-1.8789740314591492,0.4897949600076694,-2.0843657681232393,-0.17578965247822936,-1.3951907793056078,0.007810780469137801,0.27654662951477055,-0.4450354403179232,-1.3382446646594306,-0.9127183339398397,-1.6774898698894107,-1.463564395266665,-0.04715754814456641,-2.827594930607724,-1.0276035192463302,-1.5521578333100847,-1.2830515775998135,-2.5360459952770316,0.536684723592558,-3.05909263410465,-0.7239873334356284,-1.0337827905960517,-0.4390618300699122,-0.9015969930335145,0.019925092764947527,-1.395424053807707,-1.2606918955285815,-1.680956635486715,-0.9792261710510608,-1.7084970463641507,-2.0375426047092637,-0.0057106175846000085,-0.3527523372848938,-1.2269058912519804,-1.2005627623710755,-0.349629047451917,-0.567013485783022,-4.78276916793645,-2.9417416982961413,-1.4617377256456006,-0.8443233919973692,-2.18830776391465,-2.3381060876286925
046,3.7006682655564136,1.9816411009234778,2.1091718927289413,1.329004680427536,1.0971043208387883,1.3769466157132326,0.9283552359948917,1.4048259114551067,1.4067551318602676,0.9318800073311617,0.9673681970271385,1.4245094840193762,0.523937356972239,1.269141361856601,0.8503556596880465,1.7883478276598856,0.9673284281679091,0.42349402228786304,1.4635203872778924,2.5206225542594387,1.9144248810018805,2.7189969989412193,1.631908339582271,1.9284983957448705,3.817921867016093,1.7580875132758675,3.1589979353253272,1.0701737266611526,1.9566694420213189,2.0401219696125894,1.7321970353073108,1.9551740166664728,1.4253683673939477,2.195212036677055,2.0349424374863516,1.5951510269845237,2.288653209610555,2.1547885374550733,2.361936780534257,1.727646592476169,1.6081865564301996,1.1504698978227834,1.6373657701938409,0.06818612113193045,1.7269619586864753,-0.045453764842687816,0.9294214980304428,1.6374663345850158,1.006766860181985,1.2934328973822427,1.1064758569197266,2.1336288620343775,2.078235876099868,0.7123898678196905,1.0180431129354193,1.4601080562398958,-0.4761130864545205,0.8545935394795918,-3.2285790760549093,1.957110707421921,1.4680216479982136,2.283969173525239,1.312991644780221,0.8560006047494295
047,-0.9304938099501765,0.8185278808430623,0.04418398936412765,-1.938784694430111,-1.2389270691989347,-0.46320612245846465,-0.5635448867520063,-2.0366970130008006,0.4350486168608961,-0.27839891555025387,0.32787743651297735,-0.6830437854927133,-0.2120602929332981,-0.9494715011105804,-1.1048866753537805,-1.485040802089769,-0.18479541014835016,-0.5002047127211906,-0.7760136231199004,-0.5162348256252254,-1.7494633234968888,-0.6385671435839375,-0.8319654481658075,-1.5570470168525954,-0.6558135170866111,-0.29225809259521013,-0.59023049985464,-1.2511100807517872,-0.6348121197535583,-1.4791086460490326,-0.5407057375133163,-0.6476239513566782,-1.3888458271653852,-1.0598930980201478,0.5440880898228532,-1.3576972627295847,-1.4697130211500014,-0.8882923345156044,-0.8140175396447739,-1.5413703975841793,-0.3112833887712806,-1.2263960109323688,0.20917684909833173,0.001558790717480718,-1.34170681551365,-1.251216623755509,-1.7139992399922952,0.2724987110117444,-0.7733545354069837,-1.503595308846384,-0.7488265342075708,-0.034340745391090444,-0.7622080532354594,-0.7115732219044653,-2.653899009675209,-0.24601798704373273,-0.5643362921708494,-1.4225364763998192,-0.4437114644527679,0.4768621162336095,1.3892761637215787,0.7225068615071133,0.19427099545957519,-0.36042202922826017
048,-2.83430159085356,-0.9356405428442109,-2.381364954499679,-0.3905723736493016,-1.722348531154862,0.5368291752921275,-1.396790834485209,0.21792511025996736,-2.317351955700043,-2.0351173302600722,-2.045868078484692,-0.5502946196786678,-1.6439420363557047,-1.4679990861438812,-2.4600690109598085,-2.247915704629154,-2.077546805536362,-0.9082353437032451,-0.3664490443507723,-0.9710608243454577,-1.920074588837487,-0.8555506443024844,-2.4101163788331905,-2.134966664504738,-1.2687280004210386,-1.271523943497737,-1.8848553320584283,-0.9718330729284228,-0.5839588265221325,-0.5070008072446877,-1.3734140557558088,-0.9910296914165897,-2.2487084274359317,-1.1513998401256549,-1.0468937410077517,-1.7680375908708483,-0.5996883270318945,-2.2594859685539967,-0.580378030698072,-1.461833456399828,-1.1097338666549994,-1.8614663086463683,-0.5844316408280061,-2.2953271378357805,-2.415997256645185,-2.0032006144541707,-2.5309629327624172,-2.6057364587474448,-2.4191071892244977,-1.9567336101586916,-2.0169025929219027,-2.817369894248104,-2.3038635842979382,-0.3774540689218266,-2.257315402420273,-0.5541726186485625,-1.4339379719129988,-1.5328075812702795,-0.9848909034069561,-4.7426986137499085,-2.3061631069195805,-1.6976564674355226,-2.0701774869104037,-2.731961743876905
049,-3.6958954385699494,-1.7702396009077939,-4.596243115278527,1.4323470318255926,-0.8155236685138847,-1.3780799205125116,1.3411171608733328,-1.174091908409807,0.2618542501893032,-1.2393549837794975,-0.08204624685931172,-1.8540179659126081,-0.5491401295523959,-1.8253303702728625,-0.6486050550259754,-2.6182284118468995,-0.12547810949698313,-1.0250374884352471,-1.0436341687307376,-2.7768356515236077,-1.1065867603854178,-2.93457666075151,-0.7355811530518505,-3.8074715712790113,-1.996680873325958,-3.257328601051772,-2.151208955766921,-1.7415494176844741,0.7062439987717484,-1.8631662762275367,1.0027341901527314,-1.1412823515499473,-0.9607702278005642,-0.35009520782877046,-4.503187289809077,-0.7368561411948045,-1.56777753074214,1.8213374192998635,1.7237096389335704,-1.1848862295296223,-1.2040968151940463,-2.85053382429789,-0.437285848025121,-1.8308040876435716,-2.5038483716786306,-0.959069644260752,-1.894158721062916,0.23530911585704017,-3.0207279476156166,-0.17184457431375227,-2.160163584286228,-0.7462445579656096,-2.5642110717780375,-0.4583391794798939,-1.545401470611075,-0.44094230801958395,-1.4368597713644664,-0.9000020564968819,0.7066600086192991,-1.449490295693984,-0.8778355192559022,-1.6395364108618313,-3.0753807865766882,-0.07770089711581207
050,1.6823777867185479,0.5646981348329133,2.2517446035431954,0.313565054540652,1.2356283194035638,0.9459197356405339,0.19655486037985134,1.2617660876179273,0.6683869554238482,0.8489236893112218,0.8436513787040307,-0.22532649673048283,-0.11872996449986517,0.2508046631600439,-0.37080893019023337,-0.1058655391341215,1.3892100152401536,0.964342514410965,1.0424557311823457,0.4984440665538697,0.6149054554461586,1.1982333475237472,0.8300990323482251,2.009224921550786,0.4887006896735881,-0.13690443508942363,0.4571826609136259,0.8145305092203381,0.8276041461156645,1.589652388164864,0.34907608726342254,-0.38578087170142383,0.8249942732393305,1.151525004008386,1.2667652405035366,0.5100337930880778,0.6084383499235814,2.4917143950892573,2.5908609853149365,0.7579402555968519,-0.7798082383987639,-1.0943408461326265,-0.2597925265708672,-0.05781913298165081,-0.21783692096358043,0.23417508572582735,0.1249697533240729,-0.6062565203427828,-0.012548393810186464,0.7240126162940381,-0.18561437718317042,-0.5774428568227621,-0.5174776152155619,0.6074307021960603,-0.33894306659897344,-0.36444893170900533,-0.03346722715245909,0.3560865392120085,1.3423157604178235,3.0264681323249634,1.5995535281191382,2.2869627483653026,1.8090129550364646,1.238239476362692
051,-2.333839154705079,-1.7622890618712412,-2.9291281266138007,-1.060659336976274,-1.309790172115011,0.4254548970270041,1.6233864238590616,0.1839478509124715,1.391514466744433,-1.5896884780463487,1.248779302065466,0.3673022211571317,1.1901466091567041,0.26925269899699616,1.7633465484841473,-0.5952439659006885,-0.6174138875060224,0.5939214482879538,0.857716972524651,0.7324444003016953,-0.6948216639406035,0.7819502252074861,-0.4469066674761983,-0.21829800159032453,-0.8594024823715829,-1.3711491464584484,-2.23638313457032,0.3726388667224297,0.8477204187671465,-0.8517297371678461,1.0976664811863772,-1.4507003859667273,1.5614794706325101,1.0640482349250768,-2.3743312948512516,-1.2952828284480005,-2.3730652965998305,-1.1358691927811397,-0.09522179048378643,-0.21374745372191484,-0.9705424067906431,-1.6774001392343427,-1.3511417213780068,-0.6342132765673252,1.8888905680238695,2.32371110167543,0.20398079976668693,1.4670744193642737,-0.1733300263300281,-0.45812793033356314,-1.9246088494400875,0.45307111354500984,0.8217337008143898,0.7113783405423462,0.37940299202923244,0.7814517138897248,0.2870967767579409,0.938485119630029,0.02582094294617976,-4.94171401684944,-0.5149448098316404,-4.8474666790138725,-3.2704533880948845,1.8591429576760399
052,0.6233894231711603,0.09777204420668523,-1.055730910847214,-0.3184325347454629,0.46176757910373867,1.5907332281885669,0.46141289261024954,1.6174198725248556,1.8606479548653134,1.98331541196602,0.9394174801467102,1.0196091179289768,0.2908960753276746,0.6979990992083432,0.41013953569869777,1.3806148514933723,1.1184589766704176,1.176581787749726,-0.06491893857871556,-1.457905971800492,0.20735279285356972,0.7847296421633218,0.17619730896215863,-1.041435205455603,-0.4500539924571313,-0.8269109500677645,-0.3734747425484463,0.7785868244309921,0.26502897084653354,-0.705266342998947,0.6216987285795246,0.7948786941788446,1.8383272272171305,0.46950309766457105,-0.8223767816399158,-0.7046374135604607,-1.4720084173851644,-0.30264363194966065,0.10557916706166898,-0.27148814173140856,0.09943111598520882,1.738124239376685,-0.6545790857471454,0.8192352143323569,0.7904780180489096,1.2492672293095204,1.67256956303563,-0.322811871279622,1.035327756590676,0.7651526246168252,0.2604730668207582,-1.0303863057920502,0.6579093834613785,-0.987013033303676,1.1702670537449833,-1.103442586948262,0.43961334436834526,1.2311786103599618,0.012889012173984304,0.653489026385634,0.5489775490123714,-1.2936090371188087,0.2398191665207848,0.2342962651208237
053,0.8700552258493987,0.04856887586722097,1.459304741834203,-0.12367616125597958,0.6379465245465503,1.6085668355335192,0.46444432684096426,-0.5690676056864526,0.6879158052684793,0.2973937878473392,1.9375509672547708,0.8537140359107405,0.5376475536990566,0.6840995774187237,2.1418641630283206,-0.26829406741610645,2.2357387626286034,0.05562266910530905,0.6781924573052698,0.3763889143070854,0.04786841381123291,1.916575604402042,0.0971221442587683,-0.20830903886073182,-0.8942288404416996,1.813707583704286,-0.042736506461699464,0.6190523361131153,-0.5060332154953588,2.0029522389080494,1.2164876127236437,0.6705189348070787,2.566617893530786,0.407099639000094,0.9739686995400731,1.3639091318823673,-1.1378235265204597,2.2958762949759306,-2.950367204578522,1.1743931090361663,0.14039838317416575,-0.5419726019232782,0.9489638631157092,-0.5333487532402836,0.405416960976577,1.5089545754108098,-0.9895957837204257,0.6701180235048895,0.6167069506119967,1.5612170808871513,0.04734956575464461,0.5441668980189498,-0.41323252740985716,-0.17308554949063287,-0.3299112030114161,0.30887344679412215,-0.5034013422257522,0.21960073334456104,2.026317946074075,0.35871813922987256,3.038606291972135,1.1657051932304037,0.8617215661553033,1.0844258676766918
054,-2.1940049308107326,-1.285777732793512,-2.1371100359929995,-2.3472087112862656,-1.4625757673645947,-0.105178527757602,1.2083237132097027,0.019019836719804006,0.1911060396144808,-0.9566780583746296,1.2865472262500652,-0.5599571248069022,0.7550848010296807,-0.2992794918780333,0.24941913425531725,-0.8777959419145014,0.0014488420086946618,-0.03425578480575853,0.7940351464562916,-1.2261314986081788,0.06877369275951606,-0.9737205330203647,-0.2510132395031564,-1.1375127105143763,0.36962891695613986,-1.8842594039721228,-0.5386200738790038,-0.12840520589366283,0.9022786752642993,-1.0505596691121875,1.0262655762597799,-0.5960443763218151,0.7808059564344453,-0.6780244313149022,-1.2403178563561676,-1.6633382936959435,-0.8400003858545957,0.523496729062179,-0.5195240669688739,-1.0257745675279977,1.6390148107917564,0.042259247669155675,2.138375681331024,1.6690342265808487,-0.11416361506780903,-0.20662493141954202,0.3698747789891862,0.9303895014620567,-0.26200601075852425,1.0198123939078965,-0.0852027191903959,0.700850089877497,0.8112345387684516,0.6414260896977846,0.31570282435392594,0.42610938069209137,0.24643005005765994,0.4483431859710596,0.2024036653534907,-0.9134797378564717,-0.6818405832287114,-0.4406964199613054,-0.4029221383824673,0.3990066536866659
055,0.3928586562113988,-0.9985973357645761,0.3340470399948916,-0.5604938734001312,-0.35456832400356125,0.6628291975640718,-1.0274708192920743,0.1624249119914612,-0.6312919561752375,0.3369263145466649,0.3090447501356961,1.333897892591546,1.2501092704992198,2.084407444734378,0.20679143837031,-0.18572865737530786,-0.7227606372728181,0.3695339280752475,-0.576337850598929,0.12780225670724626,0.08119057359822907,0.09167832781403024,-0.31258943746613116,-0.3713433726945528,0.6758371260585692,-0.28772272664614146,0.07382381407774014,-0.3108572344763086,-0.8164685836263832,-0.4562499613109551,-1.555529371047792,-0.7307046295851405,-0.9330343276643918,-0.9125806773220602,0.04199641171465396,-1.054598862538027,-0.42380115327733503,0.5794444971709647,1.9209050925458109,-0.776726291843622,1.6801418687462126,1.7911717833736323,0.5747475821274339,0.4090770950291897,1.753075615347663,1.5483291846320846,1.8023598530343128,1.3327467184022121,1.6026208156882125,0.5756341991575517,1.4905931211679107,0.5652021985563142,0.9813126343489518,2.0060289319177675,1.8496951672418982,2.219283814468607,1.2659478563552566,1.3003960271490573,2.3466514124273963,-1.4022186711515738,-2.4728806673874013,0.07270293923602955,-0.21274217875689577,-1.4077594116241134
056,0.31741307279585557,0.2991793071683263,0.023256929527546377,0.5104872064988505,-0.5089139913363503,-0.019683516175241556,0.669555688585489,0.9235544527308652,1.7691246239207437,-0.9872090691861666,0.6717674290671509,0.37905161455034764,-0.3705864470365832,1.3822934849493538,0.15451627442883742,-0.351515808109063,0.926292995581814,0.44856501276055066,0.8870200499033527,1.6646450220829732,1.0280203964756751,-0.0028005213065458445,0.6888854409219811,-0.16667314233397812,0.6258291684611761,0.5117639049028153,0.41468577120088695,0.192235118992454,0.6951372692910571,-0.014754670867398179,1.399310468249794,-0.45382490580766205,1.2588111303805654,-1.0916582947804914,-0.5523088835351007,-0.9123587609017711,-0.39561723472403676,3.7547480819119667,-0.9618004370439781,0.9120197712188718,-1.3503357531595521,-0.4915540667722499,-0.7351465843429486,-0.8129914553096558,1.1987200523457278,0.8199936376882977,1.895600911216421,1.0839696561479595,0.7393215734605718,-0.5245258950839105,-1.46082693913141e-05,-0.45343692748259595,-0.3257930597464588,-0.7913138652792859,-0.2212835540019768,-0.24447024070943957,0.723633358217945,1.7039856611593194,2.926737830128259,1.3472143656663649,0.4554077245012307,-0.3728350136820038,-0.4973754717284315,1.5512426079490766
057,6.029815615005376,5.55966658711255,10.791087948430176,9.26595356265546,2.1421074100571973,0.3298561953664949,-0.3145207581346624,-0.4309494463111232,1.4412055026697628,0.09584966246273896,1.5934590547237137,-1.0040529846960626,0.5343841162336562,-0.1382097136414545,1.5587858287485914,-0.1964221691427096,2.1206655145137825,-0.42248947295052286,-1.1103663087570865,2.30565685965114,2.479514557250451,4.9605074789442964,5.433805338811038,3.7446590264235176,3.166701706789942,3.819083795804434,5.435408492628637,0.8721780174449318,0.842637455952296,0.6549001889050727,3.3970465803696923,0.6278817537215367,3.000555174629498,0.9427029329760807,8.760658464431563,6.60565507341856,3.4667888967264653,4.858460557524793,6.40672054601265,1.6397367058256567,0.6988699647516595,0.30772908831075935,1.5349859219616993,0.4817290706831166,0.22121411208780206,0.8431880934542394,-0.11303747505370226,0.9943595789960336,-1.1393125286515784,2.176522662652805,1.590350946544596,5.425672646083778,0.3557972611987885,1.025971451445802,0.8527175734700503,2.192347970729517,-0.06603338941684167,0.0710003285260366,2.270631460979822,2.2614892516174625,1.6649259676961898,3.648999912595205,0.5877798377412531,3.529142283747608
058,-0.9342406306371602,-0.9118758469691364,-0.3458400883745155,-0.808939213267576,-1.3629151709393577,-1.8778633485599834,-0.4184114983576393,0.2738214820368103,0.41106252938353055,0.8086860709393819,-0.6221689919352615,-0.5751194170314347,1.013537280278393,0.2685801714699439,1.2275735500536162,0.7903021517886324,0.3828391339284325,-0.8097007225068222,-0.6131676532555972,-0.7703628930798324,-1.8008968820069602,-0.451102897912833,-1.5886011626904006,-1.0535529429411907,-1.941448067259293,-0.7740909351600218,-0.058293142316265256,0.5012720219158653,-0.2872540083029197,0.33279622352534155,-0.1737355031219769,0.5378284077142597,0.7575347992852834,-0.527326725485353,-0.9690515116657008,-0.14579629561696272,-0.12642786106004855,1.5780982376452513,2.347730503665678,-0.43140419559217763,1.1131435680387542,0.5764810727905512,1.3425342654846415,0.5872492829036295,-0.6316239075080368,-0.3300253929704497,0.07814380666141374,-0.6197684617265267,-0.07608106865097919,-0.2755150378718675,-0.753800256206848,0.061696388390143464,-0.7740676705038874,0.09056936881518485,-0.7175057382510442,-0.42564817219662543,-0.7187505318524048,-0.7217230558547088,-0.3840008106637368,1.3297278615797232,-0.8424252965210297,1.0372655506659663,0.5713480267170299,-1.0983405411775857
059,0.9088051870533193,1.6309571889601124,0.6895820301685986,1.397229160665323,0.6914795983955547,-0.15586822113486598,0.21626459910983115,-0.20809741631714446,-0.23916663559628237,-0.8841661769190035,0.40867025901735393,0.8657228484015627,0.6809580495117209,0.5134608894265424,0.7467225703004537,-0.7458501141358242,0.8516066141749861,0.6219807420790961,1.016773445246426,0.463609579365446,-0.6637203378118026,-0.2119911339466708,0.7140669801464362,-0.45725903926651645,0.2539064880466778,-0.7140702808747769,2.3435723262445824,0.6364942444788828,-0.5223420101432344,0.6016202163737292,0.0008941745832372616,0.7146474540240821,-0.10942171602794915,-0.3412479580712307,1.1255319918502655,0.774966237122984,0.7377741168883146,0.3238153727915179,1.6361065719321557,-0.928216122963418,0.8976848400215405,0.2056746324572901,0.1171728421361779,0.5133317031614487,1.001473487465909,1.2368507111119011,0.17256552858006907,0.12849059617173658,0.2765800470678534,0.24563171835605038,0.5097201715870994,0.7302846980482622,-0.27288517899454245,1.3026053210746844,-0.07729656740867735,0.36063727602771234,1.3415891639953816,0.9869627342322267,-3.0440294190883357,0.5667048705438342,0.033811378233814415,1.7170395944540802,-0.39371227869103703,-0.45294122260305447
060,-0.7902781163164818,-1.764738648636717,-1.9264493359982144,-0.6247328075271974,0.20808983551902577,0.8237957784831176,1.4041610057565583,-0.3616823070320443,1.870345719535512,-1.6812440973882716,-0.884762653018877,0.19384250705736747,0.21665198710423134,0.6504782133198794,-0.034906795770831334,-0.07496986047283022,-1.5339767088680185,-0.6284007117687855,0.4389679276887306,-0.2516380603425057,0.17458645361951508,0.7974866392988083,0.09316582750888486,0.3057429846507811,-0.7316604425740096,-0.5905608295351887,0.7397539439696065,2.078087458201724,1.152721640563278,0.2025592747504215,0.7302716824567723,-1.0778577061671117,-0.2187555151056979,0.32397999807666394,0.46166696789855655,-0.03746236701681532,0.7352344227326747,1.917513239381071,-1.80515046518294,1.0125985699841715,-0.7280715310778257,-2.0976669415190425,-0.2335640730697185,-2.7272403897780637,0.7603073707269172,0.1384952794212166,2.0071344916209375,-0.21454645839911485,1.5133670259699787,0.0968601652786763,0.14288453487289243,0.21768339351247729,0.8142994670886798,-0.35287028236278173,0.42491411267962687,0.0928642157338746,0.012479276003517448,0.7598093359579061,-1.3129733836047972,-1.3716836832880852,-3.97736716012526,0.2908434383374943,0.8969202951964679,0.05537212562590488
062,1.119469343383551,1.022096788026002,1.3534559881709178,1.6406777205284424,0.10673595405606806,1.3929487164441632,0.47323780485988476,1.0453234160295177,0.203441799955022,0.09720151790513465,-1.8581492134525794,1.0726792698776078,0.6982188660028041,0.6297717822096484,0.3946872970574216,0.36975106201428554,-0.3359565720442807,0.43690683882238196,1.8266717450929217,-0.18408100055760324,0.13302793554186493,0.9505398329246226,0.4286458497955201,0.2504602473225456,0.11430271041981083,-0.3705130134508512,0.3876717048648629,0.5539777169464633,1.0528081285052941,-0.16888235337084562,-0.9830979778491852,0.5984396827915978,-1.4041711576547353,0.1039319167656268,1.3357579891713334,1.0292072997841972,1.0395781783774687,0.26570222953381367,-0.22804403216112,0.8998697774724294,-0.6820804858576727,-1.2916679093194365,-0.07333831770324217,-0.9425896202529498,0.6310939213959623,0.4395170596988779,0.3566969188761674,-0.6469972119362579,0.04584057717700979,-1.365355955986362,0.3783066159413664,-1.7415849515408734,0.6519784346583413,-0.0224683843236414,-0.47157412084215505,-0.9908937086742886,0.9450371216073423,0.3446473972343814,-1.775664662702432,1.7821797078373278,-0.9982896670745129,0.6679202422356469,0.7007359093856432,-2.7172923194329908
063,1.424941092211413,1.2998853790822007,0.017806061639586312,2.0680117922371055,1.524300940598422,-0.6418728026339309,0.11445465181038578,-3.0998508018420248,0.3158691159871545,-5.796566428110084,-0.6433246798098969,-1.4095852973727399,-0.029168804212009458,-2.7318443793230673,-0.8395746936639523,-4.9496146676052275,-1.3205814860534102,0.5289469896327028,-0.0028862172217879456,0.07212309790665733,1.6046280743074774,0.004243789523531771,1.3873045634804595,1.3909736853243237,1.2102149977401409,1.0330402863533523,2.0459910276347526,-0.3183156464886984,-0.22261371273304725,-0.6360073347350457,-0.406324447642893,-2.5474324613145685,-0.17500718908570922,0.14568502343695328,-0.6145670378515526,-0.2248062567907546,2.2204180059605565,-2.6343979149336154,1.2631350484007278,-0.17932276712647072,0.64272706378643,-1.7265122782591036,0.2912723560417532,0.7991908054744168,-1.4013592505395196,-0.8741720132255586,-2.114450239449619,-0.7670941756675647,-2.219791594681623,-1.4111770801073464,-2.9996878790195707,-0.7893726787596331,-1.2149841421171708,-0.5364998561481062,-1.2810039875987467,-1.2969366732326073,-0.7063501160900318,-0.5994865361488425,-0.9212651681332662,-4.028039747218195,0.5311999887196,-5.173496499514614,-3.612479564873263,-0.6201763664606645
064,-2.1907915486386664,-1.1949777435479283,-1.1290426600055885,0.04979233081592527,-0.21469380894623985,-1.3469188568667754,-1.4497764567962959,-1.6693083841568697,-3.343120495171526,-1.0313431645878968,-2.0198006570160745,-3.090230926546514,-3.352742825148983,-3.7302928813775242,-2.4166265280903203,-2.712076630697112,-2.3755968915765,-1.656684432539642,-1.4072272230619238,-0.21975125722590777,-1.0992705838774466,-1.0789426846458288,-0.4233921345920941,-1.7267733674092445,-1.4709307616135137,-1.0192098201260804,0.17993604884353687,-1.141187499487771,-0.810196431109881,-0.9729968169382863,-1.4694477274378488,-0.9559513838313407,-2.3092918548779875,0.304379927850319,-1.312908061344983,-2.725217395940681,-1.0089935315113565,-3.019004682982595,-0.4182922366367834,0.10852183150465089,-2.4575629517543867,-2.7907527391521727,-2.175416529959469,-2.405326556598219,-2.773300160984037,-2.310538681766022,-2.3159022593885688,-1.927182585775855,-2.708996447699636,-2.079263760760574,-2.579514606678173,-2.1002065698041985,-2.508996239991903,-2.607061276579582,-1.901802103960413,-1.401811008861397,-1.8277561921666936,-1.5123531589433263,-0.8754376344304884,-2.6378212204614737,-3.398288894006737,-2.576497574573287,-5.5951203194951935,-1.962665919197819
065,-1.662409510541722,0.2081222783145545,-0.22673924531672474,3.0216705976938782,0.09173037313596416,1.46468193545314,1.7218307740645291,0.4634282629434815,0.18458864583255247,-0.16052033831425638,0.08183764875743799,1.0985164574391062,2.1178041319560528,2.1046669598594345,0.25370979433393887,-0.8318170233747544,1.1509403568890648,2.874574001861246,1.6509482008838507,0.666145576357076,0.5290736949541578,1.1786410612250813,0.39163951543781517,-1.0988857331545423,1.4532682873256633,-0.4747617673617005,1.180311147229267,1.1634488883283993,0.28179585213341324,0.7382910276239918,-0.304820601383222,-1.229270672350998,0.8327376448438817,-0.06753126409379073,-0.234907705042536,1.1055144255355374,0.6851578587898265,-0.6363285208506256,1.1751812609983987,0.3491083930125961,1.4825744638749834,0.328183809935948,2.3568229174407223,-0.6198011377537196,1.1593656464481052,0.6380344504755361,0.887231857310867,0.2444895732862904,-1.8359882917965475,0.04999016537329959,-0.6946258996344123,0.20584006715000916,0.36639247811571085,-0.3430489851133796,-0.3845654557119702,0.29289483423921114,-0.25085548301228555,1.5863707175824078,1.6261410791131699,-1.5867992459322078,1.5478074017637677,0.26895983395651746,-1.1807051759778795,2.1949656326525195
066,-1.7923543726380875,-0.629763215002012,-1.7941368401152031,0.211497546983265,-0.14717069770524638,2.730911721734597,4.660844389357935,3.377301738092174,4.697670518172311,4.5023310416773015,-1.2543889554026824,4.223000367639045,5.223388488259052,3.5037143970995057,4.622284201637243,4.04768917000305,4.507123729293742,5.010925514392345,3.369640754658155,1.0406377411226355,-0.011040428754046039,-0.46711801968177674,-0.18329724881249304,0.05828311644265649,-0.6427730784367256,-0.2632887780455321,-0.5155705454819506,2.1612526414449986,3.221068359322662,2.694289986590029,1.3401350883714394,0.5819715629497378,0.7374428996745745,3.3285930757415914,0.27946214279040993,-1.4901206306809307,-1.8555741987824967,-0.8184821776640236,-0.11620333664887228,-0.16731828699373602,7.601143035987015,5.491574568940979,4.435980884586905,5.325145330152102,4.167531880176477,4.301752119326225,4.998549837471463,5.2676508444084345,5.805364644278049,5.64453143858321,5.327008204820325,4.388731297429702,5.598140184123527,4.807482036019472,4.40811141146699,5.671404062372543,5.276998632815566,3.646748230124615,2.9928404398713413,0.9213213018299495,1.513537465804938,3.222165606660922,4.433044556921573,3.26145649558838
067,-6.565524306037924,0.5278924889034557,-8.792693034968961,0.1514002346542495,-0.6607747881236938,0.3273484632792728,1.3676464982122316,0.4047824837595024,0.03547188883344088,-0.5004319314997521,-2.428310897295318,2.080013365032369,0.08063068185621247,-1.6898211738534838,-1.6338189886588528,-2.068532851445781,-0.1507263869621831,3.5034293619538497,2.3354970121844896,-3.4415435358618076,-0.20604800418921732,-4.387826598166469,-1.4785321092432007,-4.162329304784401,-0.5272244896556192,-2.5259666195051835,1.8128796143280577,-1.074468875641932,1.512505408522701,-2.302741422111249,-0.3042199407790839,-3.17055205906302,-0.9242504443544028,-0.26886454788210545,-5.277147779698025,1.335647948526781,-0.8674116809813828,-0.34524088263300495,-0.7265381461496827,-1.932159058599109,0.19881565843927107,-0.7225216944870692,1.007113644593717,-1.0484667291502894,0.19516662033017113,0.26176166966073716,-0.4910433668163199,-0.7670039215535541,0.4360630565101325,0.8503437350691141,0.18155171502768638,-1.349493936958059,0.29880939270197976,2.693896465410374,-1.3997658912780269,2.2762570530151796,-1.0048470118886041,-0.9415523043615968,-3.2867464553802086,-1.4074776059361631,1.8654526593836762,-0.5242799566168929,-0.6088032766257158,-2.1677265665241876
068,0.6675439730291122,0.4687722223016615,0.5047274676700898,0.4519897564662585,0.000985267575247084,0.7388183009088898,1.5850162525374962,-0.5228862212218095,-0.9645475395627998,-1.0343355895636654,0.14207775426063035,1.2615222598913378,2.439507616713082,-0.02358396672795593,0.877634395463726,0.20149455926563759,-0.7530418395093743,2.3180178925826014,0.11306237317378937,0.7513161770970462,-0.41662361118300284,-0.6446833224444435,-0.2021780465272126,-1.5058526278835693,-0.32042820612130635,1.2200122890537262,1.112808721212676,-0.15925969777806886,1.0988735697765295,-0.10721194539418161,0.47108715146907965,-0.3254854219203118,1.9590876926537388,0.19463959003377088,0.0615992840257088,0.18086165575383348,-0.15910846179091176,0.3263195652311275,-0.26615567226228737,0.35042185959818334,0.28538550294570686,1.5163594937169411,0.5384575947758712,0.6581035670387465,-0.8468616707808245,1.3684203276760016,-0.3706157051497727,0.27171880438954815,-1.166895112670292,-0.23327255983587264,0.603548661217564,-1.8606943921492414,0.927009064069154,1.504608982390297,0.7668352072419997,0.08597629566924894,0.16846404924224778,0.6756289251809058,-0.4910961477523815,1.4929513805135408,-0.7985975883896286,0.4200932515332781,1.630322451204024,0.1522531850944694
069,-1.6112110607714296,1.4519237472940563,-4.318400272461807,1.260269983570683,-2.9645156851370187,-1.7541464005412648,-1.7618993126230538,-2.3433729508896057,-1.250490659166365,-1.1345123434419437,-0.9361987256157279,-2.243642419889301,-0.6946423386146114,-3.9600544524415815,-0.4556753111789712,-3.038579452628247,-1.588315114403795,-0.8784659491351556,-1.7383552669471798,-3.2984813491431764,-0.2693738177536779,-3.193673175609314,1.066258552636445,-3.207166084799462,-1.3450032511441408,-2.4114036091084663,-0.594956114667547,-0.45198308371592494,-0.5559944502019958,-2.837960101833122,-1.3647461864464348,-3.3159259127412035,-1.612448834980572,-1.154414170005282,-2.3544162109105096,-0.8519205788487161,-1.0752155364003386,-1.488946489625361,-1.8592291383971051,-1.3479472424803307,-3.5803586501485105,-3.593359573931406,-2.130449589097493,-3.2105258907346688,-3.1492412367538245,-3.2212255451788905,-3.3636119572930334,-3.4300030160105233,-3.8346165050405023,-2.1883278777321875,-2.4286521523438545,0.07969960839488321,-3.9847654544511344,-2.7438700205128566,-4.5042348901816425,-1.701533174215868,-3.3476673683809115,-2.819259811106637,1.478947076177482,-1.4225385116118323,-2.6814541021625415,-0.9163803155398513,-1.6926309582928616,0.09714340942797106
070,0.3832871356297332,0.00895233626656039,-0.03053485763762842,-0.5725850621908799,-0.6445335550894513,0.4700168144493768,-1.6741312264129338,0.2474287845330289,-1.8129795270861027,-0.1790466756955112,-1.8382246857201565,-0.4448675782634664,-1.397455367123728,-1.365928021391574,-2.013767118844084,-0.6087227142803737,-0.3372895529672893,-0.6206016731258016,0.07982240196305934,1.283424593612266,-0.38346174571620906,0.807992933721658,-0.7728426048518061,1.1560484831071545,-0.8760080938664845,-0.16972418090000718,-1.0003914516223926,0.6095890330037235,-0.5946502229389735,1.1551868777243965,-1.495611957373289,0.4618078983177527,-1.4592084553368307,0.7392978042343578,-0.4544853818971787,-0.9195687306202134,-1.2742837852502886,2.755635935496899,-0.061103034673104684,0.9186770359944868,0.6208321537713883,-0.022114127996680166,0.38554923253422363,-0.23995661454647094,-1.0896150715686697,-0.5811662170674616,-1.5366674143153536,-1.0503730405704101,-1.7384690831490859,-0.6594346059576797,-1.0277477941672593,0.14270997288987158,-0.2675494126145374,0.016260174639484815,0.14197556302393394,0.36650256055664054,-0.5903465359850893,0.2644281072410065,-0.27283279039124925,2.015465762291286,-1.5154350032937123,1.9861168125376216,0.4947220237890387,1.068289527791352
071,0.04014907889466496,2.2971173256972435,6.992219263643688,3.3146491318735682,1.9832378858402704,-0.42042413255970196,-1.2450519950128847,-0.23174723524448176,-0.21944061080727545,-1.142703183942149,0.4929943192850308,-2.2741724805985517,-0.7662203145525313,-0.5524015462933849,1.2276268015130123,-1.1773948907440315,0.44308163228378494,-0.23259330876621448,-0.4997470720873602,2.16515971324284,1.2658511161195594,0.9711181232992826,1.7497546198953162,2.7419842127143594,3.0492851752339467,2.760484158878798,1.7050499333911415,-0.7800481845559699,-0.3189169790675868,0.4911223977308704,0.9016397819428978,0.4572941806617266,0.6386715931751985,0.467337730667429,4.953635433252183,1.7089217337695368,-0.8566922063020744,-1.6195194161661668,0.5377816408766528,1.7017296805212418,1.0310040994020606,0.022567503731574623,0.28052231468145417,0.42472866611827126,0.28950541278867337,0.6476784903772014,-0.5288069688636198,-0.7163771988281736,-0.7887274037234835,-0.7185718720579115,0.513737869285876,-0.8236809863479366,-0.10940647092875028,0.03871228486163658,0.3679054994001323,-0.647409951177103,0.8043582514709589,0.3365557046774047,-1.8398940411226175,0.22276605727161075,1.0675328658926664,-0.9635776191466372,0.10381867036453107,-0.38362698127250516
073,-2.014933473297558,-0.11274938988234562,-0.08588838344599431,-0.7403779916817613,0.03505907967708516,-0.9629544772684235,0.5363057014913719,-0.16055062301628886,-1.1599796889331302,-1.9608612690226128,-3.695029888593022,1.1666682025676693,-1.136032872432997,-0.47835295014279233,-0.21056031644226259,0.11507745089048066,-1.2038580462816544,0.6492679093200694,-0.787500320594499,0.09728494090668388,0.4335418558767625,-1.312630696261175,0.5020991911943541,-1.722070892646602,0.6386281961932789,-1.1811337268707174,-1.0758747158176254,-0.22640962073052073,0.19526619536374035,-1.7974087648771315,-0.3924196718082529,-3.0419183429056775,-1.8674154405481735,-0.18364518494015286,-0.09126767429716293,-0.22892894971283811,0.09091857903331374,-2.2936671547996963,-3.6167228799091222,0.6678662073621647,0.9787503220504304,-0.30432845282368143,-1.1679159309347622,-0.8960642280600699,0.5205258328749085,0.015117773403342027,0.4826748819420116,-0.9943209943005069,0.2013393353422624,-1.0361291945263196,-0.0492753898571594,-0.7777729388718981,1.08995905102669,-1.4965002174426343,0.3630092008715604,-1.378536078803322,-0.31019979248193685,0.056535302669774024,-4.438692162208618,-2.395158616887064,-4.588944745800884,0.38627761986323217,0.23974654886911562,-1.6836581973314044
075,0.3923822957537948,1.7468406744513092,1.3666781620037964,1.4903027762089973,0.9247698750873936,0.26220371762178357,0.8554891569043143,0.15810503858964597,-0.3548823494288762,1.0376647710358013,0.8377885554878408,0.22708656716868578,0.3366553436334057,1.0073103897598925,0.714392049919887,0.7236723018877935,-0.310450487203174,0.5003227817879234,0.45825561271681003,-0.030409619226001383,1.627830389885381,1.1761022666873433,2.391242332702703,1.9037587549792447,0.7600684398230676,0.6693261654664113,1.0664870229419543,1.4360109903328557,0.7370754877339716,-0.17253583324917382,2.068736426078412,1.0200311677656158,-0.050319661860685205,1.1560656321856215,1.1551090211283435,1.197078575355497,1.4855962233003703,1.7862567713026558,-0.3407853354018241,1.2006085315318127,2.7190135991884086,1.941439270738388,1.1611819130668053,2.115691961693922,-0.19667344440423706,-0.19546641668397796,1.5059769347228322,0.7012665010112401,1.8440441306773185,-0.21069169663766735,1.8975673580723034,-0.15844894310709623,1.4318275471477362,0.5857378203010026,2.1304100157039683,0.4143431151431054,0.9773097679086253,-0.5085782940744585,-0.14588593273855732,2.6100377699708184,0.11576227044742049,1.0455951138030601,1.99626190555348,-0.37507638965124923
076,-3.199277557010005,-2.552665933789127,-3.2445890623279365,-2.843834861823022,-2.199359037870074,-3.030785105667025,-3.775921005421735,-3.9847965158316243,-3.7204973020600343,-2.817100047205982,-3.3785268042684042,-3.2432825415410127,-3.098028843408705,-2.841103091222454,-4.697714645595732,-2.916341601968031,-4.595614300315149,-3.2994215998712546,-3.023556915054734,-3.338904662058227,-2.613376483057415,-3.558209074550142,-2.4922456300543883,-4.01461783484884,-2.3867950634271526,-2.8964630317498696,-3.1880161340678788,-2.3190272865192068,-3.4069896109810873,-2.4595869765691867,-3.6927847757423673,-2.5542680762922516,-3.04054647583416,-2.878307656498755,-3.163660534983719,-2.507033873952572,-2.9989996623810127,-3.0550934595575177,-2.556155538416582,-2.4272446811592614,-4.398308007634617,-4.842313621608178,-4.96818359525484,-4.859959054217489,-4.704595728363198,-4.660053811666544,-4.489825966958493,-4.548635608697513,-4.2591626359973285,-4.7088467845234545,-4.124758704820913,-3.755319623229301,-4.428317022914775,-4.586820574697424,-3.5086548015279746,-4.842508503518406,-4.885667396620978,-3.9002277499579256,-3.453399314262957,-3.4673500800288357,-0.7544072732296592,-5.172899205056101,-4.081443300782613,-3.881794453103306
077,-5.008359501762691,-4.66603303939516,-3.9292677227929675,-2.897598143565436,-0.9316543407793709,-0.7604327618210347,0.3894165749135512,-2.113191980494922,0.8404677611923366,-0.8167011027663407,-0.9924808596525918,0.323856951370274,0.8304540716665816,-1.3453437085846858,0.713339670746927,-2.879996635203757,-0.0987073754971976,-0.14158829386029115,0.6850146132681656,-1.5018945015424259,0.6258667346319251,-1.5592180716867656,-1.3361053382498076,-3.595086800465782,-2.0386688419147023,-5.058507110059594,-3.2103425088360673,0.150259165332554,0.604624379419141,-1.58745954187647,-0.8158346396264431,-2.450331390185422,-2.4492728530718857,-0.2733030957944516,-3.4153440121834895,-3.3473278978749756,-4.069973495237972,-5.3996135262411125,-3.5501411277209542,-0.6238160309773291,-0.7599937989000198,-1.8438586601817812,-2.2741669797052255,-0.9918276267413036,-0.5448764542762825,0.3515937948749691,-1.2628194086722606,-0.7519749916421807,-0.7694936475417369,-3.0380444360347925,-0.43782900652291595,-2.529510382211769,-1.43957111302432,-2.138722609418104,-1.0929254630231493,-1.54063835246218,-0.676097656076321,-1.0052339733356694,-0.3178821186290925,-4.282568735719687,-3.3078525678749213,-3.21336365006104,-2.2793292588331533,-2.1793668795384398
078,-1.3651312933797377,-0.4279998585025174,0.9424075790997875,-0.5284832816282824,-2.2663411079479525,-0.9680805496850853,0.24662224035993702,0.789416377155454,0.18841833578656936,2.0316323652884796,-1.3742798122664457,-0.5882794614375398,-0.187569695911798,0.3274785131416146,0.17897785134049127,-0.4549056279679487,-0.5792407270510167,-0.6978447371911687,0.18548339427480887,-1.028390182981811,-1.388901673350891,-2.078618386552408,-1.7449486761141149,-0.9573501887464848,-0.7187709271228603,-0.526469792795836,0.16462238077261254,-0.4160838957894519,0.6049367486325141,-0.5099652663758683,-1.4777259844466473,0.28565934980806973,-0.5745254952410664,-0.7784268413810129,-1.1752915016061332,-0.9291763500933337,-1.9789518612241057,1.266228087399987,-1.7314936588101757,-0.9227094456007134,-1.2434577700413443,0.9556095836421605,1.2958517877582167,0.15104361443290976,0.5820010000127027,0.2928783260404574,-0.25794716478817103,0.6138079953592681,1.0501560944144517,0.8559759784496088,0.7592705505576482,-1.5841758326574786,1.1628653061152265,0.034579252321540244,-0.052986698084739825,0.7966685578739536,1.8894885831932804,0.042116067063922735,-0.7946992680211895,-0.9549844121254865,-2.1281999135130856,-1.096897037336511,0.6064459633685548,-1.6901979016688395
080,1.5464279286268117,1.6395084599824987,0.6849290925843159,1.318410463578204,0.9478368367335006,-0.26957096972977096,0.5719480654881841,-1.4172357099430863,0.24243052752585667,0.505282051024878,0.4628166701207174,-0.6533238341988947,0.18938503443092092,-0.45292719628841827,-1.1309230514633106,0.14120622263037838,-0.9784528321623263,-0.9239595759513894,0.25118083098129323,-0.4930329406652103,-0.24218319629640922,2.487641196760413,2.1845258893395854,0.7313049617479286,0.05218243455655541,2.0580550916049787,2.0364962862136013,0.8059364211764002,-0.12709575271182222,0.9118561128376237,0.13712381102835197,1.683949446418166,-0.5508856997403369,0.9992821918516874,1.8255531222305041,1.1056576014140078,2.2573698973134286,1.2816311339402215,2.175665934438363,0.5136015711089468,-1.0358683243877977,0.7486695454958638,-0.3316523443390535,-0.5540065673897765,-0.3799328084047803,-1.3476971047898094,-0.7434790879535038,-1.5263482632621972,0.8266914525470541,-0.766122643679716,-0.7450113000281662,0.4049008560704266,0.26297405777694216,-0.8076686288887719,0.42388229367573504,-0.7483648638424873,-0.48509162664261823,-1.4588411326974098,0.8211626900856992,-0.153831170471822,-0.1931908138164945,0.9971673196799835,1.935988985671958,-0.843786894605989
081,0.0617385094637353,0.5584944568408976,0.6122653390815966,2.4358372266815618,0.34550839181977816,0.6239325785230788,-0.8838839195641202,0.3342927630951642,-0.7411275473211976,-0.41725054481379437,-1.6052866844788953,-0.20956291578430525,-0.25453313638673664,1.1543005418307666,0.4079844833138457,-0.5468996178847534,-0.35454948780810946,-0.9732936314348208,-0.5402663802761106,-0.6172189560761806,-0.8443113025482876,-0.6036138152693034,-1.0303045675760194,0.6468618510381442,-1.243574944465622,2.405165170346321,1.4385325436113234,-0.04081733691789646,-0.8594466688035092,-0.16645239757161678,-0.7467928556580932,1.480347083839128,-0.44440389178417306,-0.5357294009956314,-0.1322792303790492,0.27505761450750427,-0.030281170238417365,2.0709270662831805,0.6841204705358979,-0.705892165683913,1.2256273890473004,-0.012684791236569959,1.6425592907696276,-0.37087966035563436,-0.25123025145741373,0.31082980886742456,0.4720608732331265,0.4887275086947139,0.190337056913432,0.6557306359220495,0.6558755221693312,1.084680266008861,0.4313195083864303,0.7249695396144218,0.27353421934784594,2.0315713662652577,-0.40739214886449326,0.15364694970740944,-2.4987133555508576,-0.30964256262398526,-0.051073307906049414,0.12852143843743313,0.23919546565047253,-2.0337650942139365
082,2.0009140645939842,1.4114964324146004,0.795076061659189,1.5760302298587927,1.177939153561753,1.1891444122780297,0.7008208733779282,1.1284557684528544,0.10802223973141545,0.451063942818243,1.8617918511228155,1.2375178460598066,0.30729662045839756,1.2711534317487196,0.15799395071177585,0.4104254895715443,0.9124818134794922,2.0107609381208986,2.4929491976018574,0.26967597243777447,0.9188547959528309,1.1542357664124958,1.271810943740766,3.1835407748480833,2.4029064595855867,2.2293324872455056,2.9437064948579748,0.31308891393188254,0.9950259461160242,0.8177603734835561,0.6922195333754388,2.516952289914458,2.5359739981764102,0.9441749738124192,1.285217901946821,1.986174873263939,0.7237264882440269,2.8607089215325563,3.1941467079622967,0.891443349443646,1.8832966419253272,-0.4246768136015507,1.5583825838395515,-0.01906095894031068,1.2263399358041032,0.5252623514121326,0.22334821819503672,0.26223423421958136,0.20622100071677424,0.41977879959450376,1.0806869092856315,-1.1992860049749623,0.5467443879770186,0.7216638307757006,-0.5394250181416164,0.16092606642549365,-0.4426505624351245,0.773850991641816,2.226289849733979,1.2456270151315043,2.880303584916615,-0.9051459900451397,1.148487893235225,0.7217853111456194
083,1.0652137728542996,-0.6748422259752999,-0.26441600737522075,-0.5788737307645286,-0.6815371690229943,-0.23887447204779189,-1.4332988912980658,-1.915169192003763,0.4175209426879425,-0.7778524020242379,-0.8074982793971309,-0.5045731625244405,-0.734187370415957,-0.8922668309961432,0.09502812609649519,-0.354869610763452,-0.4124194969052217,-1.8124237991525853,-1.8609158425424117,-1.3656144231869085,-1.3217528979969932,-2.119491376695872,-0.3357760550206822,0.10663052617046409,-0.38031096223702754,0.3527188963141858,0.7155904117862099,-2.0789615190700426,-1.5338710552092714,-1.6619087382093936,0.29602432827404285,-0.8258553334320375,-0.01938381878676565,-1.2628600149974825,-0.6823134573033456,-0.3876888947887338,0.24671700037991068,0.9629665834374894,-0.7251620784591193,-1.7239449363954975,-0.8436138292366923,-1.3077180070153713,-0.5539476517034139,-0.6106911468978823,0.39164037606414487,0.36200167531701877,-0.05348882292639273,0.30880137922793227,-0.7936089399628361,-0.54352411603693,0.3453014306796716,-1.4156835165837722,-0.5316608199269883,-0.4828809864815729,-0.7706529147698239,-0.7896787598789066,-0.9254166512248954,0.3827186565806382,-0.8825569770138585,0.30819079323328763,1.5434325393840815,0.9965882677728717,0.760668101109012,-0.13336652704902902
084,1.2380017671538976,0.18380333801107443,0.4547152461641246,1.8740641338161521,1.2550157320756852,-0.7666777103015656,-0.3511515700306716,-0.46759854093395636,0.05717465387918719,1.3070442544473795,1.8287807643857685,-0.31516416792989266,-1.1170141626593821,-1.1420396378189042,1.121283100951738,-0.7892412043286883,-0.19511681124784275,-0.6891998906481801,-0.8844529927223326,-0.007184257457254345,0.21430454520265518,0.14114240104425424,1.7488460360280034,1.3929334151294133,1.2294598272787236,0.7733015341066565,1.3717222621561656,-0.7931471491537679,-0.40672759761308164,-0.4038858359692613,0.2871976603953722,1.2069894489036272,0.26724821624811584,-1.1558799151546995,1.040066198664202,0.35364636153870777,0.012496397620038568,2.049328637208324,-0.1398343910476747,0.12823100642204105,-1.6569143519848104,-1.8191052758338802,0.5193618464196069,-0.9191979265575254,-0.24590238219993843,1.070876666847515,0.15404835488680382,0.27112198420084904,-0.6444936081072288,0.47447600447233973,0.8478900154712812,2.51763463600785,-1.9900659389771258,-1.2853996413170092,-1.7755170650588643,-1.2251010787114343,-1.7607454507803177,-0.34403975232001566,-0.5257616712449193,3.0547010476388814,-1.1553461081597585,1.468924570966685,0.7258228498206679,0.29169679698595313
085,2.2334577020818904,1.9786995628159516,1.0208918233924462,5.872424314992823,2.397427072108464,0.20817052296345553,1.3925505576903507,2.3730038498077883,-0.5098523294469197,0.44732297107031843,0.3854655696259072,0.25011414583720704,0.6357414258638454,1.6209163861675535,-0.9619124136755551,1.107705735150366,-1.1861938210993865,0.19714028840650938,-0.37300207957030707,1.906199808516747,0.6498884101651807,3.304003065612286,1.2480965504621941,2.3781110570235815,0.03640126992441356,4.58966164215407,1.3331322304339996,1.0482024296278345,-0.3864841010276956,0.6574399120938597,-0.7924593439476475,1.4818711274283538,0.2526626199561265,1.7233747810084483,1.6366208389892247,3.150556762649044,2.3580886138107964,-0.5822659953773399,-2.014471925305647,2.3384446472686937,1.4310278172923763,-0.8983661522217479,-0.9939269789024228,0.21694364076689526,-0.04477216056123812,-0.38051958206445474,0.4235549665657562,0.8082960620481832,-0.01408779008098926,0.9859892317994117,0.9247008697682064,-0.31131024017719966,-0.5681959907134981,-1.1305814366768603,0.5457666806211412,-0.6849250168895251,0.016218470520147965,0.5469157957140567,-2.2875737348040497,-2.1478057609959316,-2.538147219692273,0.4197986022896801,-0.17236764783999053,-1.5735392330994222
086,-1.1083451649645637,0.47656522813866686,-0.1819558821144754,-2.900492826201095,-0.46892589715915467,-0.06466295910865982,0.4163459551302633,0.23283663710038893,0.4462640128008525,-0.2359578155482448,0.18746876554623004,0.44349405829833966,0.276309367115564,-0.05782784393011564,0.003169716066986017,-0.9386639381126598,0.07058885816223504,1.1996759216842567,1.0846937441738935,-0.9639146930788705,-0.2378916905730848,-0.816023756157218,1.0563958861314897,-0.14296582740012564,2.2809107596239375,0.3863872296692265,-1.3556666296810898,0.41712173495584737,-0.6547137606963123,-0.6728692002557389,0.004089607627043135,0.3226979257795464,0.18764426474093,-0.4726318534128355,-0.7880100699512782,-2.6736221347239746,-2.6979786253081666,0.4514999387950776,1.3705755478645631,-0.674391271220862,2.2902039468834543,1.1533364561354973,-0.9834387513707636,1.3111554420888578,-3.4265547514890224,0.30019861086939525,-0.29218591158158025,0.005020449356353929,-1.3809699437816896,-1.3987800979398104,-0.1849708963065168,-2.1061230102986737,-0.9351488963064285,-0.7940212593474838,-0.646582946894759,-0.9855448395607925,-0.38538772252105435,-0.21812201420363586,1.6309808768695757,-2.9929126050567123,-0.4324906839029109,2.340094421425047,-0.01853198013599827,0.4042622677278701
087,-0.0030101234061176707,0.6334252375545565,0.9006138418694363,1.865174725739964,0.9420873464561089,-0.875080183555399,0.7095770652678001,0.1595872306193084,1.8264166433341809,-0.24899729431662854,0.9518196585752031,0.28008291490432186,0.7826257122017806,0.5883025095811064,0.6598607340542177,-0.6823435734449925,0.5484467566985038,-0.4493799945890464,0.3965843207195213,-0.15559096263145783,1.2375278462216897,-0.6530251340004946,0.7105319146688911,0.6275082410444816,0.7883976236879038,0.9026629063057379,0.506476245593996,-0.5997634575755756,0.5874396917021667,0.2996964447251662,1.1471436735976799,0.47883245229774435,0.04430827420807171,-1.2513431524309122,1.6309200071855345,-0.006331505870244558,-0.9336459660303807,-1.764995004551869,-0.7646301835481422,0.18127641330883992,1.007660512023501,-1.0351705914396505,-0.35478146926337784,1.0531789581685915,1.1677384203176828,0.4226365736163702,0.5521187736368887,0.45823298781705946,-0.7773353937720531,0.3495797103928142,-0.6808305625277244,-0.09193679631001844,-0.3438547028216131,0.13729198746160914,0.8981838560211414,0.3435929027302042,1.471770208411507,0.48395092457992434,-0.25341399878408466,-2.564417102231532,0.07819502405357381,-0.3075339395146039,-1.2491068116239943,-0.6932968649887605
090,3.194158784669441,1.6394496553945774,2.653375066193769,3.1612922617885215,1.228611654853693,0.11501374399098113,-0.14899646233742014,1.4547901858832828,0.19182420936904587,1.481416939437095,2.132148789187571,0.27141742705728533,0.9293086414836713,1.5116979912971222,0.537149408018841,0.21787454845817475,-1.3600892044470594,0.303758072229539,-0.07959112020855663,0.6819898985698337,0.49882601936748355,1.408243620674208,1.1882723509564679,1.7324945179960434,0.7717148194752311,2.1233169809281733,3.2528069800886446,0.6518818105582609,1.4252284038187233,1.432698923872395,0.10287272855082608,2.0495014550792066,3.5539728607021086,0.708406642532657,4.0470306210097515,4.083749518219329,3.593020873662214,-0.2008477614055888,4.197634531304561,2.181432257888811,0.8742038372250327,1.3326542463610256,0.20775563767685146,-0.43427244998947706,0.6885642252710849,0.7794124901517385,-0.23974020340385271,1.5261574149013326,-0.4237383236335622,-0.7364243893480885,0.2894156413621924,-1.4947444304914286,0.981454360790022,1.5689390938474084,0.3099341544090636,0.22105044433358334,1.8409117348285267,0.10066593937651452,0.42271312205259326,0.28577258965297914,-1.3531056728251636,1.0062666889987955,1.5253305699833362,-0.6991905567493373
091,-3.4164972995291785,-3.1516272456543257,-3.3190204133918937,-1.9848324484468265,-1.2241174906317283,-0.958620974746272,-0.8792898207400415,-1.5796718761595832,0.3938259490822224,-0.4700771789574975,-0.02324653960690304,-0.5150636310081267,0.4503380708929267,-0.33344040532276353,-0.13255634889530205,-0.11580551751038604,-0.4602778511976049,-0.6441541340238265,-0.9956171324585402,-1.6745035768326575,-1.7746839926199196,-2.2208413798770184,-2.012235211788199,-1.8195091422847798,-1.7912542876175532,-0.20530090625339353,-2.2991678458332094,-1.9226291583912845,-1.4303674232815502,-2.0964998858603896,-1.6254559167307507,-0.1873378254134488,-0.9965979446643733,-0.899350583853596,-1.7981811816095186,-3.0441481454297787,-2.577621735738761,0.7100612855584687,-1.2619709030590056,-1.8353832885602883,0.26764427392914153,0.6848407545166042,0.7587462542823816,1.497026288748761,0.21535633674368093,1.6270563659224577,2.039466452924251,1.9039594999750022,1.7756315545802897,2.2932910538192717,1.0338174122425758,2.2954251595014483,1.0641608856481584,2.2978514442234665,0.4606236885500105,-0.053275681600985,0.8468629484104707,0.9871415995326196,0.5046079281956156,0.644475125341018,0.7998318646842268,1.7132434167939103,1.904521288437227,0.6092328804852707
094,1.1695335465400545,0.9944996884698256,0.08127393125080418,0.4866091637030877,1.6974270551582067,-0.7935311548052928,-2.3249278338123047,1.541781913240681,-1.8124611806454611,-0.9068637952682826,3.072460968011683,-4.14430610814891,-1.58005560434637,-1.8399485999766787,-2.822824110572223,0.943891920938273,-0.8996048816836344,-2.005284045852591,-1.2626327438393745,0.7395737286047834,-1.0719702660231492,-0.3272252085266427,-0.2877682722832083,0.18793522449859507,-0.9039256888107448,-1.8467176749235312,0.006550536562916431,-0.21932214797318988,-1.9325387225113149,0.08635646226308002,-0.9381976241514856,-1.1530450384491724,0.10915418679500133,-1.547688134881336,-0.2495704067171856,0.2825363209320612,0.22280702878238207,-2.7167380846609617,3.5476060946908357,0.27249189785726147,-2.435476016676957,-2.7784881983869263,-2.0074399759312427,-1.8709698967759594,-3.3328849043072806,-2.6366553194272324,-1.3755766159385026,-3.1884039892986427,0.2902324599222058,-2.5275797779128615,0.2180614505852692,-0.6908554201281127,-1.8183843538106275,-2.600586506352637,-1.3984153201510583,-0.8526991584686765,-2.919636114509841,-2.769858363008897,0.551693832454324,-2.1271421607371854,4.169938109731424,-1.8729854140014695,0.7461321832554586,-0.36595441369456844
095,-0.3634416117827931,-0.678150440443216,1.9052676312394832,2.806854538366086,1.6077197573089275,3.4969328379218827,-1.3138562333221715,4.8236083675498,3.615249311105313,3.692720221758406,2.043368279894857,3.0138495875001086,3.987556937379612,3.4750083550665125,2.4770264608732617,4.173758393155692,4.797814994479386,3.663688380813838,2.9982600969376034,3.529994077555117,1.2623832356039706,0.7044573081415791,0.3077673020630992,2.8362996374136986,2.8649515369531304,3.2439475825108244,3.134397948806676,3.487030222351317,3.0743669458788125,3.901870267997063,1.2300218539790504,1.5942274376680738,3.727928719302506,3.3094162755891636,2.4456654028209255,1.643967792061992,1.9296067413189635,1.9303392567009348,3.1882217381156237,2.8030020523081496,3.8675920900359713,3.4592101722555437,2.482023008402404,1.6606817568128052,3.092252254202489,3.0354550031942282,3.213082455165384,3.1083473991761794,4.001334591022053,3.465586455962702,3.454301192667082,3.0042362113637893,1.221069867613127,1.6701597081571897,2.4336187659802633,2.521050576833722,2.4204680592686927,3.2795157958531806,3.1244624873535685,2.9959886615123597,4.525606488488833,2.9598472321598193,2.1950994039751057,4.720128278376144
096,3.39614917323237,3.6193095253652987,3.0514315663478433,2.4013115878776046,3.0694424365831288,3.099522716823329,2.9235098204212506,3.830223816119826,4.638545296948243,1.585925735447732,2.6191498511712035,3.256785238555871,4.154295499892598,3.2369867818272904,4.544958553721618,3.0135522138260114,4.3908249693671255,3.4124095213150354,3.347895491902776,3.201190910864273,3.5441856768541773,3.1242785711205805,4.6027962409354775,2.4030193974078493,3.9512388340656996,2.527438862682622,3.313696387312242,3.144573863355107,4.163424675827233,3.433878415993772,4.02899610958627,2.358109012414958,3.115852855783742,3.0072524422029296,2.3777912587602126,2.5486647068490615,0.3132588570553282,3.089057454490515,3.7449156187671266,3.090998905856842,1.2150446807310151,1.7340871757181444,2.4207487895764728,1.8063022133287063,2.9117955535001503,4.462763483873938,4.100560627004002,2.735619650345949,2.8786447820034375,3.224043142277634,2.782228930464794,3.2433354631882376,2.641276948898084,2.120385371108158,1.385993871411889,2.403723275300366,2.7654199813778706,4.019748682160303,5.736309558957638,2.576196971594108,4.747145582113301,2.213107344113386,3.3353394856053384,6.240336401060103
097,-0.845727954427514,0.2703156639332216,-0.639340304922746,0.21855588013039345,-0.09613856255096342,-1.2592110049585759,-1.141065736202184,0.11803159191228091,-0.88177963921519,-1.7051919419642236,0.3447258630230638,-1.7662869668469978,0.6911463881701839,0.3079679866949419,-0.49166485204058086,-0.6786730199217796,-2.3091351968121043,-1.166021142852832,-1.7514392539245462,-0.12178905704331588,-0.08259764659891361,-0.6002773570061734,-0.7682463734364203,-1.4792591350413498,-0.8695140670715147,-0.07005745764988913,-0.83373501844421,0.07313338876482856,0.302920061736711,-0.4654554579519389,-0.6023575632591295,0.35858661339534115,-0.42239226624474435,0.5725423499032972,-0.9127011960011596,-0.6998121121933737,-1.3140021787277087,-0.6021165373913491,-2.8075152898075904,0.9556480377406703,-0.8008861323330791,-1.6748600047656486,-2.053710134375902,-1.023288006474572,0.20337134134420592,-0.7706486419841572,-0.5964004159273265,-0.4960654776089526,0.298693373035381,-2.291742076147224,-0.0951782863188731,-1.4295578783579113,-0.5341192880471918,-0.7356348251010231,-0.18618210568558746,-1.783167741891901,-1.6892824047346067,-0.2064575377559082,-1.1514747571371218,-1.4723459945297388,-1.2405129667745332,-0.5749106366869213,0.8512901465772742,0.16372574004904417
098,-2.3925508943985783,-2.142932182487622,-0.5814672399264049,0.19452492766556956,-0.9879609504766484,1.2037293480580082,1.2563365975343703,0.6452861854377723,0.6269653744890441,-0.0012623699067166316,0.7157903514563337,1.0913060320499326,1.2582634887758284,2.1493251081471896,0.9779644148412974,1.6339407194226065,0.44916867316280257,1.3568587388232503,2.493178244306885,-0.4239073784666199,-1.8289289457498623,-0.4744750410319762,-3.1944437012271,-0.1932877169653141,-1.570109476095921,-1.374012598042567,-1.9607930070435622,1.0969265960890997,0.2589608639968167,0.35940078433074935,-1.4988368233267175,-0.562894147004505,-1.5924091078586746,1.514288251613038,-1.1168823390677958,-0.761094609162522,-1.566922621621147,-0.4502399009311955,-2.3151961533853744,-0.6178170114779339,-0.18283075365776658,2.1142983490297373,1.728971127348608,1.4183159580884206,0.9755409492674789,1.9859938526657774,1.7517667768689362,1.1722524056290602,2.292328684903752,0.8884400060961558,2.2201754863636842,0.8685130435225871,1.3328601497881647,1.5120892616901391,1.8182826285424702,1.0807883101166724,0.47606693510588605,2.1619169954270685,-3.9478240816039682,-0.04707182811047844,-1.8388672651419724,-0.37586237655191684,0.7289711684426715,-0.34911216216768753
099,1.033721106281058,-0.6354878123903237,0.0344676008253304,1.0079827995419142,0.15412827394982348,-0.7909196938287462,-1.7020966041891705,0.05747336583573359,-0.8391772314449182,1.2370587500977757,1.692711012527613,-0.07978905283702376,-0.49567607521453816,0.8217382697284832,0.3101312800046171,1.1946205948328403,1.334543379414146,-1.7819607250214886,-0.748409743885694,0.2399730227162724,-1.428438369188109,0.5921979138860971,-1.1360241278599754,0.7400351384310682,0.3748818985279689,0.9364719005593551,0.3894967481756405,-0.8782375335518334,-0.9272323093294826,0.7658729993685028,-0.36150534894191394,1.5494631721167087,0.7454833207493433,-1.9903846894240886,1.0741366202446128,1.290908823709787,1.246440683290873,1.8712838078925336,2.5230729311567557,-1.3577146395300654,0.7287351232877491,-0.01085467909058474,0.9875101543337224,1.096542665885114,0.7684060817614276,-0.1354869250719255,1.079907209573011,-0.28149424297523207,0.12645190985544957,1.1689176427051138,1.2392921008516027,1.9966272533517584,-0.42385780226046293,1.231696773851909,0.3273328745486826,1.2815027854543655,1.3200217226678008,-0.2009352563816389,1.4839045266920237,1.2160368578443073,3.256756247541733,-0.3373622681325328,1.1294045166823712,0.5920946917222897
101,1.0624900326024438,2.0261440779169955,0.34107732426685744,1.7380325942922559,0.6174594116175286,-1.375897054755423,-1.1560414785026698,-0.22699833307708772,-1.3943702612514746,1.1536669544676448,-1.0521283526561303,-1.0970063988741523,-1.564073253167226,0.02705453516952605,-1.589556757372384,0.8469401764257722,0.4272333191542974,0.1385256795827043,-1.1423757870050455,1.0238493095394985,2.0963142275168978,-0.23919946870849684,1.3463380966251763,1.5127007545212403,3.6259891350412574,2.2444765037161236,3.43205355639992,-0.04374044334215166,0.42497911615820666,2.2994490828401366,0.3752650508792583,1.893420212985541,1.8826950626050278,-1.2245509794730103,1.926175755783416,-0.494982873443105,0.5086970926768626,1.764626569010685,-0.5815705409282539,2.264055029497834,0.31989029924829654,-0.02821042689018649,-0.14776222988820958,-1.218995999371035,-0.41950702211548646,-0.6438244810415553,0.2764526052357967,0.05546722487773048,1.3844106747807658,-0.3149085532319814,0.4804556783145796,2.759994726537313,-0.682008424237114,-0.5756387294314524,1.1754576942613557,0.9312858066176302,-1.935403859757502,-1.3446587346104226,1.0053591897604979,2.884854534711782,-0.25434283827140536,0.21862787084424373,1.3195363198434975,0.15743496774220161
102,-2.4004975540284956,-2.738848933883253,1.184265526983861,0.041047024542125055,-1.112565717314095,1.297176921170267,2.771068088643942,1.6105807119125606,2.251875425371673,0.08334820676071081,3.055742860158159,2.1576455107692585,2.006423156182567,0.6359231133442964,2.5804216178635193,0.9436410653510303,1.0697175027834933,0.4086093845228464,2.2222348836523667,-0.8474535403139936,-1.0943745706986632,-0.40507664343883676,-0.5630108026633509,-0.0629329787437991,0.030109753558546337,0.5092023853115195,1.63689147631454,-0.32062130768359354,0.8913802223699563,0.7391701128523882,1.5754772233903234,0.5962238815018643,1.0630492936271347,0.51085413542305,-1.0501943461368326,0.3188533677656749,0.06954512651208572,0.24059204966787368,1.1727310979772079,-0.03398728390826594,0.8204173971289155,1.3391091025698463,-0.09774109847801477,0.9855756393826431,1.4122286941343551,1.0985230328086795,1.1586922795188537,0.4823577874243371,2.4659732137779353,0.5755913272699511,0.5038572226589437,-1.6589997237186436,0.7354261707844387,-0.6538422147756267,1.0771574856322788,-1.2769852245416071,0.6875396155934921,2.035125577741803,-2.056198604539269,-1.1399007291989283,-0.06673871279658328,-1.2868156287728836,0.6573047739391356,-1.0889716519368287
103,-0.6983806183714929,1.3800618803606475,2.445505100909971,2.0949955329285608,-1.9841247883446915,-2.22564350772915,-1.3396012665749069,-2.5262561991398718,-1.2769036744620275,-2.9256416537004744,-2.30958630364871,-1.5013915605573294,-1.513784733526204,-2.47751861627563,-1.695236139574548,-0.6685526137635969,-0.6806636780413997,-1.517047860484211,-1.391069328649381,-1.1692890026073528,-0.32786548806793836,-1.071077824923894,0.757947979994542,-1.4345763849539739,0.9686330793993541,-1.8406743751742354,-0.4356169641466311,-1.8705203523658196,-1.6593504870276379,-1.6817565391743947,-1.255091290909504,-2.210139312367072,-0.9522273173024911,-1.94443128018866,-0.9473798395777977,0.874662008131438,-0.8028060656642919,-1.1554693027773668,0.5758897301343663,-1.2106812260485218,0.6039394869494792,-0.08836196983457639,0.6278138625371377,0.1416360871100062,-1.4566427615804238,-1.5188403258966623,-2.170705105754532,-1.1862534110340521,-0.5261945575099432,-0.49456288390285547,0.5234551666081249,0.4764861822589594,-0.04683632337419197,-0.8515251543779445,-0.6721783750245063,-0.6126191439624424,-1.6757094131674197,-1.8941755978302552,-1.0016331679619195,-0.5294110914151364,-1.5501066767696852,0.1138086757667034,0.24734897508103776,0.5506661841336291
104,0.6109544264655118,-0.06620283061056159,0.010937355436867247,-0.4125820654590411,1.0660112317497505,-0.11339282318924726,0.9561741649938524,-1.174388032352737,-0.5447547783835214,-1.567956150050639,0.588274609973353,-0.4061973241227452,-0.22906675370863594,-1.7454022941946494,0.009820942775145114,-0.8514624311818921,-0.42971524846083564,-0.22098248972132895,0.4378785781358669,0.34278201743506037,1.146668045399394,0.8658009138448471,0.42608537428776944,0.5235783532981726,0.13996055635090193,-1.2461421227024763,-0.6394307889765611,0.6800598257075895,0.865407575295847,0.41649731866053497,0.34550227516284465,-1.1033831851804778,-0.14031895877729705,0.7724955858265913,0.7130299554426069,1.511758398377085,1.5279906267992982,-1.2501797639875667,-0.9666963435961644,0.6134951594404411,-1.7349159417936009,-0.14288958818363723,-0.44184178174899075,-0.550717160522163,-1.3668495332395283,0.2231910021015497,-0.4419288175580158,-1.3554102095271487,-0.996294810520734,-1.293918606847827,-1.851736232962995,-1.3534402577677758,-1.9049777131643884,-0.21059134348248604,-1.258060899491366,-0.6326611263463788,-1.0696565743394078,-0.7844071176075381,-2.5623628374942875,-1.658558095763972,-1.0369728785297272,-1.4486001729380755,0.07761172626169222,-0.6462689157252542
105,1.3030204623033197,-0.28075549264711674,-0.23561633786159997,0.018984178786177086,0.9126352019994801,0.38515311649701356,0.14616337075098854,0.2707691381109032,-0.10709002878497925,0.43799733283714615,-1.0387893703270097,0.6880401517176736,-0.4510008907676452,0.5327739886900758,0.4667392938409484,0.8998967411828545,0.9636900639748158,0.43523559910747517,1.5175807737335272,1.6446868515012452,0.9966950911707868,0.5865341210328807,-0.24385824212076668,-0.6956058007701824,-0.5972273603964859,-0.3081418549854333,0.45641321056635736,-0.0817391927522384,0.25712890453462467,1.2905169488713695,-0.25350217272517317,1.8383710169134204,-0.7980054118662347,1.1586075061889585,-1.5424814692433304,-0.4644881370734532,0.06221893904672343,-0.9395547570099945,-2.919621482114833,1.1144816532876596,-0.003560067780635945,-0.9261852785467615,-1.1772059772192967,0.13694784832540008,0.1232157641291009,-0.19516411835861847,-0.3904602694816486,-0.07423396469586052,1.4613096552047469,0.13101077169200587,0.49861446671916454,1.1437325923512707,-0.005054324103037466,-0.8605111727024459,-0.37723634454937593,-0.5950969774831252,-0.7601921555968981,0.24546307903639777,-2.207629642507519,-0.6056502770662502,-0.8413339009553102,-2.4692725336489385,-0.1570770317289616,0.8496596876789968
106,0.20533286116898658,-1.6748501055799407,-0.3279772455633763,-1.789803468518678,-0.8168381248477379,-2.3795838719219597,-0.14778657805105533,-0.8601040834901941,-1.465383003427496,-0.6329471700576871,-1.8634958275298452,-1.9327040603406014,0.04346023117962872,-1.3519600469615771,-1.1764595629956913,-0.5572369958862511,-0.7099453191738195,-1.6148844686807906,-2.4953187998718134,-1.2728815717630912,-0.4973708697372575,-0.7476856093993896,-0.6800324724664804,-1.6627966436200006,-1.8592970013069607,-2.189565456351191,-1.3851781410063055,-0.19899788387370249,-1.0825111758399422,-1.7273436265990365,-0.24765447051782657,-2.770001097435806,-1.0342331610697781,-0.0035609024865916883,-0.7991629031239802,-0.4014152642182294,0.3296781202484145,-2.1294873504705354,0.6301820102220963,-0.26468079731991356,-0.8907875445252067,0.8330869066601705,-1.5041600882822677,-0.5182630099976573,-0.9055643624818291,-1.3570962725313458,-1.2230914529237016,-1.4891122606273368,0.8624651042150279,-1.1431480598025567,-1.5437916751823457,0.19010796680037578,-1.3455207583582538,-0.059622775807460504,-1.3115041807953833,-1.2103748370743592,0.17642604252671645,-0.6808604329483501,-3.9249078789639147,-3.523029693352278,-5.414665268920769,-3.8950225136931502,-1.0104273892602111,-0.416767124897221
107,-0.4464372316934885,-1.6254116107802004,-0.996727721883258,-3.7613241170093135,-1.404135129914241,-1.3331732791052888,-1.52545313435096,0.005303205244731213,-1.6789319698317005,-1.1129454276452064,-1.9556482726213174,0.05970178108630936,-1.5721292380308978,-1.0075137629088886,-1.5188206918411924,-0.6913495622293917,-2.4996307227022974,-2.1892879213391163,-1.440103032498735,-1.3620104066387444,-1.4931375600079697,-1.1560940725862037,-1.9971376453274694,-0.1760457004423397,-3.173564169088559,-0.21805652144724885,-3.214108403794928,-1.1811121039835046,-2.37203368040616,-1.2738405289853647,-1.3476507436106078,-0.9143841831338787,-1.5937097213237041,-1.472182435433552,-1.163803546592915,-2.8575107299843947,-1.8455859339700753,-0.7095700932416928,-2.0468984966630046,-1.7248173525315735,-2.4753977084259855,-0.8776205346189087,-1.307251576130028,-1.9743639928957104,-0.9910879116546323,-1.2035330200143022,-0.7847404949136321,-2.2866761688003496,-0.8866520974145743,-2.100038278205722,-2.4325607701441854,-2.6440491210996395,0.0625659378157637,-1.2394676337012756,-0.9798398644794705,-0.731805884048722,-1.399103235577285,-1.3227934112460198,0.10791933788195018,-0.2643185477174814,-1.5493517151231289,-0.19631588174825765,-1.0306503493555195,-1.9236580536466132
